%OpenBCI Raw EEG Data
%
%Sample Rate = 250.0 Hz
%First Column = SampleIndex
%Other Columns = EEG data in microvolts followed by Accel Data (in G) interleaved with Aux Data
0, -8906.75, -9067.48, -9142.02, -9502.93, -163063.88, -93835.84, -173194.59, -168738.50, 0.01, 0.45, 0.20
1, -9119.40, -9282.81, -9186.88, -9430.92, -163105.33, -93671.64, -173158.80, -168659.59, 0.00, 0.00, 0.00
2, -9529.75, -9707.29, -9279.30, -9287.19, -163193.14, -93346.60, -173100.75, -168506.98, 0.00, 0.00, 0.00
3, -9362.16, -9541.78, -9243.38, -9344.84, -163158.66, -93473.83, -173127.78, -168569.20, 0.00, 0.00, 0.00
4, -8940.16, -9106.03, -9147.85, -9487.94, -163071.55, -93807.20, -173189.31, -168723.95, 0.00, 0.00, 0.00
5, -9051.63, -9213.86, -9167.43, -9449.76, -163089.50, -93724.64, -173166.69, -168680.89, 0.00, 0.00, 0.00
6, -9488.72, -9665.65, -9264.60, -9299.24, -163179.58, -93379.88, -173102.09, -168519.03, 0.00, 0.00, 0.00
7, -9429.22, -9612.28, -9253.76, -9318.02, -163168.38, -93418.48, -173113.41, -168540.66, 0.00, 0.90, 0.40
8, -8981.87, -9151.59, -9153.67, -9469.88, -163076.13, -93770.13, -173180.03, -168705.63, 0.00, 0.00, 0.00
9, -8977.76, -9141.82, -9150.16, -9470.68, -163074.45, -93778.69, -173177.80, -168706.64, 0.00, 0.00, 0.00
10, -9427.18, -9601.17, -9249.58, -9322.40, -163165.98, -93434.20, -173112.94, -168545.88, 0.00, 0.00, 0.00
11, -9491.91, -9674.55, -9265.67, -9299.20, -163180.52, -93377.60, -173105.98, -168522.02, 0.00, 0.00, 0.00
12, -9050.58, -9224.59, -9170.16, -9452.46, -163092.16, -93725.48, -173174.52, -168687.48, 0.00, 0.00, 0.00
13, -8935.87, -9101.61, -9142.44, -9490.97, -163069.05, -93821.53, -173189.42, -168729.53, 0.00, 0.00, 0.00
14, -9354.52, -9530.25, -9234.58, -9350.52, -163153.47, -93496.70, -173125.88, -168576.63, 0.00, 0.00, 0.00
15, -9536.57, -9719.48, -9274.54, -9286.37, -163189.59, -93349.69, -173100.70, -168508.81, 0.00, 0.00, 0.00
16, -9130.11, -9305.97, -9185.05, -9425.73, -163105.55, -93665.85, -173161.84, -168658.97, 0.01, 0.90, 0.40
17, -8906.46, -9071.59, -9134.08, -9498.96, -163061.94, -93844.09, -173193.48, -168740.06, 0.00, 0.00, 0.00
18, -9269.58, -9442.14, -9213.68, -9377.92, -163134.69, -93563.80, -173137.72, -168607.73, 0.00, 0.00, 0.00
19, -9549.80, -9734.54, -9277.56, -9281.14, -163194.13, -93340.86, -173099.75, -168505.02, 0.00, 0.00, 0.00
20, -9214.04, -9392.02, -9202.24, -9398.06, -163122.09, -93603.38, -173150.23, -168630.42, 0.00, 0.00, 0.00
21, -8897.69, -9062.72, -9127.47, -9498.89, -163055.80, -93848.87, -173191.84, -168740.73, 0.00, 0.00, 0.00
22, -9179.73, -9351.30, -9189.16, -9403.62, -163112.61, -93629.69, -173146.19, -168635.84, 0.00, 0.00, 0.00
23, -9539.66, -9724.44, -9268.64, -9276.62, -163186.64, -93341.22, -173093.09, -168500.55, 0.00, 0.00, 0.00
24, -9289.81, -9472.69, -9214.48, -9363.37, -163134.33, -93533.09, -173131.94, -168593.48, 0.00, 0.00, 0.00
25, -8912.15, -9078.23, -9129.14, -9492.88, -163056.97, -93837.13, -173188.91, -168734.14, 0.00, 0.00, 0.00
26, -9098.99, -9267.17, -9167.17, -9427.34, -163091.83, -93690.93, -173154.98, -168661.63, 0.01, 0.90, 0.41
27, -9512.61, -9695.05, -9260.53, -9284.71, -163179.39, -93363.48, -173095.30, -168508.61, 0.00, 0.00, 0.00
28, -9369.94, -9554.63, -9231.29, -9335.21, -163150.42, -93471.82, -173119.28, -168562.75, 0.00, 0.00, 0.00
29, -8939.58, -9111.13, -9133.57, -9478.66, -163060.89, -93808.30, -173180.89, -168718.27, 0.00, 0.00, 0.00
30, -9023.94, -9190.72, -9147.41, -9449.13, -163073.77, -93746.48, -173162.36, -168685.06, 0.00, 0.00, 0.00
31, -9468.02, -9647.86, -9248.57, -9301.01, -163167.55, -93402.10, -173099.69, -168524.59, 0.00, 0.00, 0.00
32, -9440.35, -9627.19, -9246.58, -9310.75, -163164.52, -93417.99, -173107.86, -168535.36, 0.00, 0.00, 0.00
33, -8991.75, -9166.36, -9146.71, -9463.19, -163072.11, -93769.63, -173174.25, -168699.70, 0.00, 0.00, 0.00
34, -8960.32, -9127.71, -9137.93, -9473.43, -163065.69, -93799.67, -173176.22, -168710.31, 0.00, 0.00, 0.00
35, -9405.21, -9581.68, -9237.06, -9326.31, -163156.27, -93457.80, -173111.58, -168549.67, 0.00, 0.00, 0.00
36, -9499.13, -9684.83, -9260.19, -9292.78, -163177.16, -93378.01, -173100.63, -168514.75, 0.01, 0.90, 0.40
37, -9063.65, -9240.26, -9165.65, -9442.96, -163089.16, -93719.05, -173166.92, -168676.81, 0.00, 0.00, 0.00
38, -8922.08, -9088.46, -9132.30, -9489.88, -163060.64, -93835.10, -173185.56, -168727.86, 0.00, 0.00, 0.00
39, -9326.60, -9503.04, -9220.12, -9351.19, -163140.61, -93516.74, -173121.16, -168576.22, 0.00, 0.00, 0.00
40, -9536.39, -9720.91, -9268.69, -9280.87, -163185.23, -93351.95, -173094.52, -168501.41, 0.00, 0.00, 0.00
41, -9146.24, -9323.61, -9185.09, -9418.02, -163106.02, -93658.81, -173155.41, -168648.56, 0.00, 0.00, 0.00
42, -8898.03, -9064.50, -9128.88, -9498.40, -163056.78, -93853.98, -173189.92, -168736.64, 0.00, 0.00, 0.00
43, -9244.79, -9417.48, -9206.21, -9384.36, -163127.45, -93588.34, -173137.55, -168611.25, 0.00, 0.00, 0.00
44, -9547.23, -9730.41, -9274.88, -9278.50, -163191.41, -93346.29, -173094.97, -168498.64, 0.00, 0.00, 0.00
45, -9228.54, -9405.66, -9203.31, -9387.64, -163121.45, -93591.35, -173141.08, -168614.89, 0.00, 0.00, 0.00
46, -8896.64, -9060.77, -9129.23, -9499.36, -163055.33, -93855.87, -173190.09, -168737.05, 0.01, 0.90, 0.41
47, -9155.79, -9324.75, -9186.48, -9411.67, -163107.77, -93653.74, -173147.61, -168640.83, 0.00, 0.00, 0.00
48, -9533.60, -9714.94, -9272.02, -9281.00, -163187.16, -93354.00, -173093.72, -168501.06, 0.00, 0.00, 0.00
49, -9309.14, -9490.30, -9224.25, -9359.23, -163140.30, -93525.80, -173128.61, -168584.81, 0.00, 0.00, 0.00
50, -8915.46, -9079.57, -9134.35, -9492.09, -163058.30, -93838.50, -173185.48, -168728.91, 0.00, 0.00, 0.00
51, -9076.95, -9240.48, -9166.85, -9434.60, -163087.91, -93711.25, -173154.88, -168664.78, 0.00, 0.00, 0.00
52, -9500.56, -9678.95, -9264.04, -9289.56, -163178.09, -93376.82, -173094.50, -168508.55, 0.00, 0.00, 0.00
53, -9386.66, -9567.95, -9241.87, -9330.36, -163155.44, -93462.61, -173114.61, -168552.31, 0.00, 0.00, 0.00
54, -8950.04, -9116.70, -9144.57, -9478.86, -163065.72, -93806.73, -173179.03, -168713.28, 0.00, 0.00, 0.00
55, -9010.12, -9170.94, -9156.21, -9461.85, -163076.69, -93769.56, -173168.41, -168693.73, 0.00, 0.00, 0.00
56, -9454.43, -9628.82, -9255.72, -9311.04, -163168.33, -93421.30, -173102.70, -168530.53, 0.01, 0.90, 0.41
57, -9454.83, -9636.71, -9258.16, -9308.12, -163169.03, -93411.00, -173103.61, -168527.83, 0.00, 0.00, 0.00
58, -9008.83, -9179.12, -9160.91, -9463.08, -163078.48, -93764.23, -173171.97, -168694.41, 0.00, 0.00, 0.00
59, -8948.83, -9112.27, -9145.80, -9482.77, -163066.05, -93816.17, -173178.06, -168714.98, 0.00, 0.00, 0.00
60, -9384.63, -9555.86, -9239.72, -9333.98, -163151.69, -93475.08, -173110.00, -168552.38, 0.00, 0.00, 0.00
61, -9506.02, -9685.75, -9268.02, -9289.41, -163177.14, -93372.04, -173093.72, -168505.45, 0.00, 0.00, 0.00
62, -9074.05, -9246.89, -9173.02, -9435.81, -163087.39, -93705.30, -173156.92, -168663.08, 0.00, 0.00, 0.00
63, -8902.57, -9065.06, -9131.80, -9490.82, -163051.30, -93841.60, -173178.20, -168723.75, 0.00, 0.00, 0.00
64, -9299.46, -9470.46, -9220.00, -9358.43, -163131.91, -93534.60, -173118.08, -168579.02, 0.00, 0.00, 0.00
65, -9539.46, -9719.75, -9275.95, -9278.25, -163183.44, -93347.90, -173088.19, -168493.61, 0.00, 0.00, 0.00
66, -9160.95, -9336.08, -9192.31, -9409.01, -163103.63, -93641.20, -173143.78, -168632.97, 0.01, 0.90, 0.41
67, -8886.96, -9050.38, -9131.27, -9501.15, -163050.14, -93859.58, -173183.34, -168732.89, 0.00, 0.00, 0.00
68, -9216.32, -9385.18, -9203.73, -9391.06, -163116.52, -93605.68, -173132.45, -168611.47, 0.00, 0.00, 0.00
69, -9542.72, -9723.54, -9276.82, -9274.81, -163184.92, -93343.45, -173085.73, -168488.14, 0.00, 0.00, 0.00
70, -9246.20, -9421.68, -9211.24, -9379.04, -163120.33, -93574.50, -173130.48, -168599.34, 0.00, 0.00, 0.00
71, -8894.47, -9056.52, -9133.71, -9500.97, -163050.14, -93857.48, -173183.83, -168731.61, 0.00, 0.00, 0.00
72, -9133.37, -9300.81, -9187.66, -9422.29, -163100.16, -93674.46, -173146.53, -168645.20, 0.00, 0.00, 0.00
73, -9525.11, -9704.59, -9272.53, -9281.25, -163180.20, -93358.23, -173086.47, -168495.41, 0.00, 0.00, 0.00
74, -9327.52, -9506.73, -9230.87, -9351.66, -163139.36, -93510.60, -173118.25, -168570.14, 0.00, 0.00, 0.00
75, -8922.68, -9086.41, -9141.84, -9494.75, -163057.80, -93839.48, -173181.94, -168724.02, 0.00, 0.00, 0.00
76, -9061.33, -9224.54, -9172.80, -9451.41, -163086.61, -93739.37, -173160.50, -168674.95, 0.01, 0.90, 0.41
77, -9491.42, -9668.18, -9270.12, -9302.10, -163177.36, -93397.84, -173097.52, -168514.44, 0.00, 0.00, 0.00
78, -9408.21, -9588.90, -9255.88, -9334.13, -163162.52, -93462.03, -173115.08, -168548.95, 0.00, 0.00, 0.00
79, -8964.30, -9131.94, -9155.77, -9483.78, -163070.45, -93809.59, -173179.67, -168711.61, 0.00, 0.00, 0.00
80, -8991.86, -9151.43, -9156.26, -9471.57, -163071.73, -93790.53, -173168.95, -168698.56, 0.00, 0.00, 0.00
81, -9438.74, -9610.49, -9255.79, -9319.94, -163163.23, -93440.66, -173102.72, -168534.27, 0.00, 0.00, 0.00
82, -9471.15, -9652.73, -9267.28, -9309.14, -163173.09, -93409.84, -173102.20, -168523.08, 0.00, 0.00, 0.00
83, -9022.30, -9192.69, -9165.89, -9459.75, -163078.48, -93757.83, -173166.11, -168685.17, 0.00, 0.00, 0.00
84, -8935.51, -9097.29, -9145.55, -9489.54, -163061.72, -93832.24, -173177.17, -168716.77, 0.00, 0.00, 0.00
85, -9365.45, -9535.90, -9238.80, -9343.61, -163146.63, -93496.77, -173110.50, -168557.34, 0.00, 0.00, 0.00
86, -9514.96, -9694.46, -9272.91, -9289.07, -163177.88, -93371.88, -173090.06, -168500.39, 0.01, 0.90, 0.41
87, -9094.34, -9265.85, -9181.90, -9434.45, -163092.41, -93700.30, -173154.63, -168656.95, 0.00, 0.00, 0.00
88, -8897.27, -9058.07, -9135.02, -9497.46, -163051.41, -93856.31, -173180.17, -168726.03, 0.00, 0.00, 0.00
89, -9277.90, -9447.84, -9220.14, -9371.50, -163129.08, -93562.86, -173122.75, -168588.09, 0.00, 0.00, 0.00
90, -9538.47, -9717.08, -9278.86, -9281.76, -163183.28, -93356.48, -173086.97, -168492.72, 0.00, 0.00, 0.00
91, -9182.39, -9356.13, -9202.57, -9408.70, -163110.55, -93637.55, -173143.00, -168627.98, 0.00, 0.00, 0.00
92, -8888.77, -9051.54, -9136.92, -9506.02, -163052.86, -93869.97, -173185.41, -168734.25, 0.00, 0.00, 0.00
93, -9197.23, -9364.02, -9203.62, -9401.88, -163113.61, -93630.70, -173135.72, -168619.41, 0.00, 0.00, 0.00
94, -9540.48, -9719.07, -9281.20, -9281.94, -163185.34, -93356.73, -173086.66, -168490.84, 0.00, 0.00, 0.00
95, -9268.82, -9444.26, -9222.80, -9379.15, -163127.92, -93570.45, -173129.81, -168594.08, 0.00, 0.00, 0.00
96, -8899.77, -9061.22, -9139.47, -9503.29, -163053.09, -93862.93, -173183.75, -168729.56, 0.01, 0.90, 0.41
97, -9114.73, -9279.04, -9188.09, -9432.75, -163098.30, -93699.02, -173150.06, -168652.09, 0.00, 0.00, 0.00
98, -9520.30, -9697.62, -9278.81, -9292.22, -163182.69, -93377.49, -173091.13, -168501.72, 0.00, 0.00, 0.00
99, -9347.70, -9526.25, -9241.62, -9352.06, -163145.98, -93507.65, -173117.88, -168565.83, 0.00, 0.00, 0.00
100, -8930.93, -9093.05, -9147.83, -9495.67, -163060.02, -93841.20, -173180.28, -168720.86, 0.00, 0.00, 0.00
101, -9040.43, -9201.50, -9170.18, -9458.30, -163080.36, -93758.73, -173159.61, -168678.27, 0.00, 0.00, 0.00
102, -9475.84, -9651.95, -9268.53, -9307.02, -163171.80, -93412.43, -173095.23, -168515.34, 0.00, 0.00, 0.00
103, -9419.90, -9599.78, -9258.32, -9326.29, -163160.95, -93451.23, -173106.31, -168536.70, 0.00, 0.00, 0.00
104, -8974.87, -9141.13, -9160.35, -9480.74, -163070.47, -93804.84, -173174.34, -168703.67, 0.00, 0.00, 0.00
105, -8978.14, -9136.48, -9158.65, -9481.81, -163069.69, -93811.37, -173171.97, -168704.28, 0.01, 0.90, 0.41
106, -9426.96, -9596.18, -9259.25, -9330.56, -163162.83, -93462.74, -173106.80, -168540.80, 0.00, 0.00, 0.00
107, -9489.08, -9667.62, -9277.47, -9309.32, -163179.39, -93408.95, -173102.34, -168518.84, 0.00, 0.00, 0.00
108, -9042.76, -9212.85, -9178.68, -9463.59, -163086.02, -93758.34, -173167.98, -168684.00, 0.00, 0.00, 0.00
109, -8926.48, -9088.04, -9149.28, -9500.00, -163060.58, -93851.22, -173180.11, -168723.61, 0.00, 0.00, 0.00
110, -9352.37, -9520.10, -9242.09, -9356.51, -163146.31, -93522.02, -173115.80, -168567.44, 0.00, 0.00, 0.00
111, -9532.44, -9709.55, -9283.60, -9292.38, -163185.19, -93375.66, -173092.33, -168499.77, 0.00, 0.00, 0.00
112, -9119.49, -9291.40, -9194.23, -9435.95, -163100.09, -93697.03, -173154.75, -168653.34, 0.00, 0.00, 0.00
113, -8895.26, -9055.16, -9140.79, -9507.67, -163052.48, -93873.08, -173183.39, -168731.69, 0.00, 0.00, 0.00
114, -9261.33, -9428.84, -9221.86, -9384.69, -163126.63, -93589.66, -173127.27, -168597.23, 0.00, 0.00, 0.00
115, -9551.39, -9729.02, -9290.88, -9290.66, -163191.36, -93368.87, -173093.00, -168497.50, 0.00, 0.91, 0.42
116, -9214.22, -9387.15, -9219.38, -9413.66, -163123.03, -93637.84, -173147.64, -168628.75, 0.00, 0.00, 0.00
117, -8899.26, -9060.15, -9148.64, -9518.31, -163060.59, -93886.64, -173192.98, -168742.91, 0.00, 0.00, 0.00
118, -9184.78, -9350.58, -9208.54, -9419.05, -163114.89, -93661.61, -173144.19, -168633.33, 0.00, 0.00, 0.00
119, -9540.22, -9718.67, -9283.42, -9285.79, -163184.11, -93366.63, -173085.58, -168491.16, 0.00, 0.00, 0.00
120, -9293.45, -9468.85, -9231.81, -9376.85, -163133.36, -93563.86, -173127.20, -168587.73, 0.00, 0.00, 0.00
121, -8909.85, -9071.59, -9144.99, -9506.13, -163054.72, -93867.42, -173183.02, -168727.88, 0.00, 0.00, 0.00
122, -9096.31, -9260.39, -9184.80, -9440.95, -163092.16, -93720.80, -173150.36, -168656.80, 0.00, 0.00, 0.00
123, -9514.18, -9689.62, -9279.37, -9298.35, -163180.63, -93393.37, -173091.70, -168504.45, 0.00, 0.00, 0.00
124, -9368.38, -9546.30, -9247.18, -9346.43, -163148.19, -93499.31, -173113.09, -168556.11, 0.00, 0.00, 0.00
125, -8939.51, -9102.88, -9149.11, -9491.38, -163057.78, -93837.67, -173174.69, -168712.84, 0.01, 0.91, 0.41
126, -9021.01, -9181.47, -9164.15, -9462.39, -163072.08, -93776.27, -173157.27, -168680.14, 0.00, 0.00, 0.00
127, -9459.86, -9634.58, -9262.47, -9309.25, -163163.50, -93426.51, -173090.88, -168515.09, 0.00, 0.00, 0.00
128, -9434.83, -9615.27, -9259.81, -9319.38, -163159.89, -93442.83, -173098.55, -168526.25, 0.00, 0.00, 0.00
129, -8987.43, -9154.38, -9160.10, -9473.07, -163067.84, -93795.85, -173165.70, -168692.23, 0.00, 0.00, 0.00
130, -8960.01, -9117.46, -9150.92, -9482.77, -163060.53, -93824.71, -173166.92, -168702.06, 0.00, 0.00, 0.00
131, -9399.87, -9569.16, -9248.08, -9332.32, -163149.13, -93479.22, -173099.88, -168538.47, 0.00, 0.00, 0.00
132, -9485.88, -9665.68, -9267.97, -9296.18, -163167.02, -93397.79, -173086.30, -168501.41, 0.00, 0.00, 0.00
133, -9053.82, -9223.56, -9174.99, -9449.69, -163080.31, -93742.54, -173154.59, -168666.64, 0.00, 0.00, 0.00
134, -8915.42, -9075.48, -9144.79, -9500.09, -163055.05, -93862.02, -173176.66, -168721.47, 0.00, 0.00, 0.00
135, -9328.05, -9495.27, -9235.92, -9364.40, -163138.31, -93545.98, -173115.16, -168572.73, 0.01, 0.91, 0.41
136, -9535.32, -9711.88, -9283.66, -9292.60, -163182.56, -93379.59, -173087.45, -168496.14, 0.00, 0.00, 0.00
137, -9139.02, -9310.78, -9197.16, -9427.54, -163100.42, -93684.70, -173146.13, -168640.33, 0.00, 0.00, 0.00
138, -8893.22, -9053.69, -9140.95, -9509.06, -163050.69, -93881.33, -173180.84, -168728.94, 0.00, 0.00, 0.00
139, -9241.73, -9408.72, -9219.25, -9394.77, -163122.27, -93614.55, -173128.52, -168603.38, 0.00, 0.00, 0.00
140, -9548.89, -9724.95, -9288.54, -9289.43, -163186.23, -93372.35, -173086.14, -168491.27, 0.00, 0.00, 0.00
141, -9228.52, -9400.79, -9216.99, -9399.06, -163117.27, -93618.36, -173132.88, -168608.84, 0.00, 0.00, 0.00
142, -8891.10, -9051.32, -9140.77, -9509.86, -163049.91, -93882.64, -173180.86, -168730.27, 0.00, 0.00, 0.00
143, -9153.40, -9316.70, -9196.13, -9419.83, -163100.42, -93677.84, -173136.42, -168630.73, 0.00, 0.00, 0.00
144, -9531.25, -9708.46, -9281.41, -9288.67, -163179.52, -93377.60, -173082.05, -168489.75, 0.00, 0.00, 0.00
145, -9308.29, -9484.52, -9232.86, -9367.26, -163131.50, -93550.02, -173116.72, -168573.23, 0.01, 0.91, 0.41
146, -8915.48, -9076.73, -9147.76, -9506.26, -163054.94, -93869.70, -173179.80, -168723.67, 0.00, 0.00, 0.00
147, -9074.38, -9236.75, -9180.44, -9448.35, -163085.52, -93742.14, -173149.41, -168660.05, 0.00, 0.00, 0.00
148, -9499.25, -9673.92, -9273.96, -9299.24, -163171.91, -93403.18, -173085.08, -168499.98, 0.00, 0.00, 0.00
149, -9381.72, -9558.88, -9248.84, -9338.42, -163146.38, -93488.00, -173103.45, -168542.41, 0.00, 0.00, 0.00
150, -8946.33, -9108.67, -9150.38, -9486.77, -163055.56, -93832.59, -173167.70, -168702.98, 0.00, 0.00, 0.00
151, -9000.56, -9159.95, -9159.61, -9467.46, -163064.48, -93793.30, -173154.80, -168680.86, 0.00, 0.00, 0.00
152, -9446.76, -9620.24, -9263.34, -9319.45, -163161.16, -93447.37, -173092.70, -168520.61, 0.00, 0.00, 0.00
153, -9455.06, -9634.18, -9270.36, -9321.71, -163166.66, -93442.56, -173098.52, -168523.05, 0.00, 0.00, 0.00
154, -9006.25, -9173.63, -9169.62, -9474.10, -163073.16, -93793.59, -173164.50, -168687.30, 0.00, 0.00, 0.00
155, -8949.57, -9107.33, -9153.55, -9492.43, -163059.48, -93843.57, -173169.23, -168706.48, 0.01, 0.91, 0.40
156, -9385.74, -9553.45, -9251.16, -9346.09, -163148.64, -93504.81, -173104.52, -168546.83, 0.00, 0.00, 0.00
157, -9504.97, -9683.87, -9282.70, -9305.10, -163177.66, -93405.92, -173092.00, -168504.36, 0.00, 0.00, 0.00
158, -9079.88, -9249.69, -9190.68, -9454.77, -163091.38, -93742.74, -173158.38, -168665.92, 0.00, 0.00, 0.00
159, -8912.36, -9070.83, -9152.03, -9511.65, -163058.25, -93880.48, -173182.06, -168728.28, 0.00, 0.00, 0.00
160, -9308.72, -9473.90, -9237.24, -9377.14, -163135.55, -93571.41, -173119.06, -168580.69, 0.00, 0.00, 0.00
161, -9540.19, -9716.42, -9288.94, -9294.53, -163183.06, -93382.95, -173085.67, -168492.50, 0.00, 0.00, 0.00
162, -9161.78, -9334.11, -9208.52, -9426.92, -163106.91, -93678.10, -173144.50, -168634.00, 0.00, 0.00, 0.00
163, -8892.35, -9052.05, -9146.22, -9515.29, -163051.88, -93891.49, -173181.75, -168730.31, 0.00, 0.00, 0.00
164, -9220.21, -9386.01, -9217.59, -9404.32, -163116.75, -93636.20, -173129.14, -168608.44, 0.00, 0.00, 0.00
165, -9548.69, -9723.77, -9292.38, -9293.09, -163186.28, -93379.59, -173085.02, -168490.13, 0.01, 0.90, 0.40
166, -9252.08, -9423.07, -9228.95, -9399.33, -163125.06, -93613.15, -173132.56, -168603.83, 0.00, 0.00, 0.00
167, -8897.71, -9057.26, -9151.05, -9518.58, -163055.72, -93893.62, -173185.77, -168733.83, 0.00, 0.00, 0.00
168, -9138.64, -9301.19, -9203.55, -9438.72, -163103.63, -93709.30, -173146.75, -168645.14, 0.00, 0.00, 0.00
169, -9531.28, -9706.65, -9291.78, -9302.91, -163185.77, -93398.15, -173089.69, -168499.20, 0.00, 0.00, 0.00
170, -9336.88, -9511.74, -9251.32, -9374.90, -163145.52, -93552.38, -173122.69, -168575.55, 0.00, 0.00, 0.00
171, -8923.69, -9084.24, -9154.42, -9509.30, -163057.20, -93872.25, -173178.81, -168721.89, 0.00, 0.00, 0.00
172, -9054.62, -9215.38, -9180.29, -9459.95, -163081.78, -93765.74, -173152.19, -168667.64, 0.00, 0.00, 0.00
173, -9492.32, -9665.25, -9281.25, -9314.13, -163175.28, -93427.38, -173092.28, -168510.00, 0.00, 0.00, 0.00
174, -9406.31, -9583.71, -9264.33, -9343.90, -163157.48, -93489.72, -173107.58, -168541.89, 0.00, 0.00, 0.00
175, -8964.12, -9127.02, -9163.43, -9493.32, -163064.28, -93837.00, -173171.28, -168703.50, 0.01, 0.91, 0.40
176, -8992.60, -9150.07, -9168.06, -9485.32, -163069.69, -93822.07, -173164.75, -168694.11, 0.00, 0.00, 0.00
177, -9436.39, -9608.03, -9269.16, -9334.94, -163163.39, -93474.10, -173100.11, -168531.50, 0.00, 0.00, 0.00
178, -9472.62, -9651.01, -9280.27, -9324.25, -163172.69, -93443.38, -173099.25, -168520.45, 0.00, 0.00, 0.00
179, -9028.85, -9195.42, -9182.48, -9478.70, -163081.77, -93794.84, -173166.77, -168686.44, 0.00, 0.00, 0.00
180, -8943.94, -9100.07, -9159.68, -9505.79, -163062.08, -93865.99, -173174.92, -168714.83, 0.00, 0.00, 0.00
181, -9376.76, -9531.63, -9253.22, -9359.03, -163147.30, -93529.58, -173107.66, -168554.41, 0.00, 0.00, 0.00
182, -9525.17, -9683.31, -9286.12, -9303.24, -163177.47, -93403.40, -173085.58, -168495.92, 0.00, 0.00, 0.00
183, -9103.33, -9254.27, -9190.63, -9444.53, -163087.39, -93727.30, -173145.45, -168648.27, 0.00, 0.00, 0.00
184, -8908.20, -9049.46, -9145.60, -9509.57, -163048.27, -93884.95, -173172.80, -168719.39, 0.00, 0.00, 0.00
185, -9290.03, -9439.32, -9229.42, -9381.92, -163124.17, -93589.16, -173113.50, -168579.36, 0.01, 0.90, 0.41
186, -9544.80, -9706.42, -9287.48, -9291.51, -163177.88, -93382.43, -173077.31, -168483.22, 0.00, 0.00, 0.00
187, -9183.48, -9342.54, -9210.64, -9418.29, -163104.73, -93664.09, -173133.56, -168618.94, 0.00, 0.00, 0.00
188, -8893.11, -9040.10, -9144.79, -9515.45, -163046.67, -93895.85, -173175.45, -168724.97, 0.00, 0.00, 0.00
189, -9205.32, -9357.49, -9215.83, -9415.96, -163111.53, -93661.02, -173129.83, -168614.48, 0.00, 0.00, 0.00
190, -9551.06, -9714.69, -9293.90, -9297.03, -163183.70, -93388.42, -173081.70, -168486.84, 0.00, 0.00, 0.00
191, -9272.26, -9434.27, -9230.80, -9389.90, -163122.38, -93598.33, -173120.94, -168586.00, 0.00, 0.00, 0.00
192, -8896.64, -9045.39, -9143.25, -9509.06, -163043.77, -93885.88, -173170.56, -168716.64, 0.00, 0.00, 0.00
193, -9115.22, -9266.00, -9192.98, -9439.41, -163089.25, -93722.56, -173137.52, -168639.86, 0.00, 0.00, 0.00
194, -9523.72, -9688.07, -9287.55, -9302.68, -163177.05, -93404.74, -173082.09, -168493.50, 0.01, 0.91, 0.41
195, -9359.35, -9524.46, -9255.97, -9367.75, -163145.64, -93539.74, -173114.08, -168562.81, 0.00, 0.00, 0.00
196, -8940.23, -9092.33, -9162.29, -9511.38, -163060.33, -93873.16, -173176.81, -168717.80, 0.00, 0.00, 0.00
197, -9050.15, -9201.59, -9187.06, -9475.69, -163083.94, -93792.21, -173158.27, -168676.89, 0.00, 0.00, 0.00
198, -9489.68, -9653.45, -9286.05, -9325.30, -163175.38, -93446.20, -173093.67, -168513.94, 0.00, 0.00, 0.00
199, -9429.78, -9598.60, -9273.00, -9342.22, -163161.22, -93482.73, -173101.77, -168532.23, 0.00, 0.00, 0.00
200, -8983.03, -9138.20, -9171.41, -9492.65, -163066.81, -93832.42, -173166.45, -168695.53, 0.00, 0.00, 0.00
201, -8984.15, -9132.61, -9171.17, -9494.55, -163067.91, -93840.02, -173165.70, -168697.69, 0.00, 0.00, 0.00
202, -9427.16, -9587.76, -9272.13, -9344.68, -163161.00, -93493.27, -173100.98, -168535.55, 0.00, 0.00, 0.00
203, -9490.15, -9659.02, -9288.78, -9322.73, -163175.27, -93438.54, -173094.58, -168512.45, 0.00, 0.00, 0.00
204, -9046.20, -9205.88, -9188.56, -9472.76, -163081.92, -93783.31, -173158.31, -168673.91, 0.01, 0.91, 0.41
205, -8934.60, -9084.73, -9161.06, -9510.53, -163058.58, -93877.37, -173172.09, -168714.36, 0.00, 0.00, 0.00
206, -9351.79, -9511.09, -9251.83, -9367.19, -163141.17, -93548.57, -173105.92, -168557.63, 0.00, 0.00, 0.00
207, -9527.56, -9697.57, -9293.99, -9305.34, -163179.95, -93404.56, -173083.31, -168491.95, 0.00, 0.00, 0.00
208, -9124.90, -9287.33, -9207.93, -9449.49, -163098.66, -93725.94, -173148.03, -168646.30, 0.00, 0.00, 0.00
209, -8902.27, -9052.84, -9154.85, -9519.92, -163051.83, -93900.39, -173176.48, -168723.55, 0.00, 0.00, 0.00
210, -9269.09, -9425.66, -9235.92, -9397.83, -163125.08, -93617.15, -173119.80, -168589.48, 0.00, 0.00, 0.00
211, -9548.46, -9716.35, -9298.75, -9298.82, -163183.44, -93391.22, -173079.55, -168484.50, 0.00, 0.00, 0.00
212, -9207.00, -9371.71, -9225.59, -9418.80, -163114.06, -93657.38, -173132.50, -168613.16, 0.00, 0.00, 0.00
213, -8896.04, -9047.81, -9154.69, -9523.07, -163051.25, -93905.60, -173177.44, -168726.81, 0.00, 0.00, 0.00
214, -9182.99, -9339.09, -9216.79, -9425.93, -163107.58, -93682.55, -173130.44, -168619.41, 0.01, 0.90, 0.41
215, -9548.42, -9715.25, -9300.31, -9301.90, -163184.88, -93396.56, -173080.38, -168486.19, 0.00, 0.00, 0.00
216, -9297.95, -9463.97, -9246.74, -9390.39, -163132.77, -93591.18, -173119.78, -168580.22, 0.00, 0.00, 0.00
217, -8913.47, -9067.25, -9162.70, -9521.62, -163057.92, -93897.93, -173179.09, -168723.41, 0.00, 0.00, 0.00
218, -9104.29, -9257.85, -9203.15, -9457.29, -163095.31, -93751.77, -173146.83, -168652.75, 0.00, 0.00, 0.00
219, -9521.98, -9687.38, -9297.59, -9314.28, -163182.73, -93423.13, -173086.92, -168499.52, 0.00, 0.00, 0.00
220, -9381.72, -9550.10, -9269.07, -9366.65, -163153.92, -93533.66, -173112.27, -168555.38, 0.00, 0.00, 0.00
221, -8951.29, -9106.97, -9170.88, -9511.18, -163064.59, -93872.23, -173174.58, -168712.09, 0.00, 0.00, 0.00
222, -9034.24, -9186.95, -9189.83, -9485.32, -163083.19, -93814.00, -173160.67, -168682.53, 0.00, 0.00, 0.00
223, -9480.54, -9645.87, -9291.84, -9336.46, -163177.27, -93467.98, -173097.31, -168520.72, 0.00, 0.00, 0.00
224, -9453.36, -9625.04, -9287.08, -9345.17, -163171.63, -93483.38, -173103.08, -168530.27, 0.00, 0.90, 0.41
225, -9002.97, -9164.91, -9184.42, -9496.03, -163076.73, -93833.96, -173167.77, -168693.58, 0.00, 0.00, 0.00
226, -8976.66, -9128.27, -9177.02, -9506.38, -163071.08, -93862.82, -173170.25, -168704.23, 0.00, 0.00, 0.00
227, -9413.62, -9574.48, -9273.36, -9354.18, -163158.83, -93514.87, -173101.77, -168539.17, 0.00, 0.00, 0.00
228, -9503.98, -9673.25, -9293.99, -9319.49, -163177.14, -93434.73, -173088.70, -168503.30, 0.00, 0.00, 0.00
229, -9063.95, -9228.45, -9194.75, -9467.26, -163084.63, -93774.13, -173151.11, -168662.80, 0.00, 0.00, 0.00
230, -8922.64, -9079.73, -9159.99, -9512.59, -163054.66, -93887.98, -173168.19, -168712.45, 0.00, 0.00, 0.00
231, -9336.37, -9495.96, -9251.50, -9376.22, -163138.05, -93570.59, -173106.56, -168562.91, 0.00, 0.00, 0.00
232, -9544.28, -9711.72, -9303.29, -9308.18, -163186.23, -93408.74, -173083.52, -168489.77, 0.00, 0.00, 0.00
233, -9150.18, -9317.03, -9218.35, -9445.78, -163105.92, -93717.58, -173144.55, -168636.59, 0.00, 0.00, 0.00
234, -8904.89, -9064.08, -9163.28, -9528.12, -163058.34, -93915.26, -173180.44, -168726.86, 0.01, 0.90, 0.41
235, -9255.28, -9418.26, -9239.85, -9412.21, -163127.83, -93646.14, -173126.08, -168600.14, 0.00, 0.00, 0.00
236, -9560.85, -9727.86, -9307.53, -9305.77, -163190.81, -93403.71, -173082.88, -168488.16, 0.00, 0.00, 0.00
237, -9234.40, -9399.78, -9235.61, -9415.09, -163121.91, -93650.77, -173130.66, -168606.42, 0.00, 0.00, 0.00
238, -8894.59, -9053.04, -9155.41, -9520.75, -163050.06, -93909.24, -173174.58, -168722.22, 0.00, 0.00, 0.00
239, -9158.60, -9322.73, -9212.29, -9431.94, -163101.77, -93704.77, -173129.98, -168622.50, 0.00, 0.00, 0.00
240, -9541.27, -9717.20, -9300.25, -9304.27, -163183.02, -93408.23, -173077.80, -168484.30, 0.00, 0.00, 0.00
241, -9317.68, -9491.49, -9252.30, -9384.87, -163137.38, -93584.00, -173114.23, -168571.06, 0.00, 0.00, 0.00
242, -8917.43, -9078.25, -9163.48, -9519.03, -163058.00, -93899.38, -173174.09, -168718.30, 0.00, 0.00, 0.00
243, -9080.82, -9241.04, -9197.21, -9461.92, -163088.47, -93772.31, -173145.70, -168655.89, 0.00, 0.00, 0.00
244, -9506.29, -9678.64, -9292.89, -9315.49, -163176.17, -93436.48, -173083.55, -168498.22, 0.01, 0.90, 0.41
245, -9389.61, -9564.92, -9267.10, -9353.74, -163149.20, -93520.70, -173100.59, -168538.66, 0.00, 0.00, 0.00
246, -8950.62, -9113.10, -9165.87, -9498.78, -163057.02, -93862.05, -173161.50, -168695.84, 0.00, 0.00, 0.00
247, -9005.38, -9166.72, -9178.10, -9482.03, -163071.02, -93825.04, -173151.30, -168677.30, 0.00, 0.00, 0.00
248, -9452.93, -9625.15, -9277.63, -9330.80, -163163.28, -93475.62, -173085.27, -168513.97, 0.00, 0.00, 0.00
249, -9457.94, -9634.65, -9281.49, -9330.65, -163165.14, -93469.45, -173089.52, -168514.75, 0.00, 0.00, 0.00
250, -9015.11, -9177.98, -9184.24, -9485.72, -163074.80, -93823.92, -173159.55, -168681.88, 0.00, 0.00, 0.00
251, -8961.64, -9108.25, -9169.33, -9503.04, -163062.11, -93872.95, -173164.39, -168699.92, 0.00, 0.00, 0.00
252, -9387.67, -9552.78, -9265.04, -9355.25, -163149.53, -93532.88, -173097.67, -168538.78, 0.00, 0.00, 0.00
253, -9509.71, -9689.73, -9298.35, -9317.64, -163180.36, -93437.73, -173086.97, -168499.61, 0.00, 0.00, 0.00
254, -9085.67, -9255.83, -9204.58, -9465.83, -163093.95, -93773.48, -173152.70, -168660.53, 0.00, 0.91, 0.41
255, -8920.63, -9076.37, -9161.89, -9517.75, -163057.56, -93905.76, -173172.19, -168717.84, 0.00, 0.00, 0.00
0, -9323.14, -9475.71, -9248.55, -9383.89, -163135.63, -93596.72, -173109.67, -168569.92, 0.00, 0.00, 0.00
1, -9547.82, -9716.50, -9301.72, -9303.06, -163183.95, -93410.98, -173078.09, -168483.23, 0.00, 0.00, 0.00
2, -9161.58, -9334.65, -9216.67, -9431.16, -163102.80, -93702.89, -173133.05, -168620.97, 0.00, 0.00, 0.00
3, -8892.28, -9054.02, -9155.21, -9519.58, -163049.08, -93916.46, -173171.25, -168718.27, 0.00, 0.00, 0.00
4, -9226.24, -9391.20, -9229.24, -9411.83, -163116.55, -93664.00, -173121.39, -168600.14, 0.00, 0.00, 0.00
5, -9556.69, -9720.26, -9301.39, -9298.86, -163183.64, -93405.84, -173074.48, -168479.75, 0.00, 0.00, 0.00
6, -9253.33, -9416.92, -9235.56, -9402.46, -163121.11, -93637.58, -173120.36, -168590.64, 0.00, 0.00, 0.00
7, -8899.62, -9059.03, -9156.97, -9520.14, -163051.34, -93916.22, -173172.50, -168718.20, 0.00, 0.00, 0.00
8, -9143.29, -9306.86, -9212.81, -9442.56, -163101.88, -93733.80, -173135.95, -168631.36, 0.00, 0.91, 0.41
9, -9537.96, -9713.17, -9303.56, -9310.19, -163185.23, -93426.40, -173081.83, -168489.44, 0.00, 0.00, 0.00
10, -9344.04, -9508.92, -9260.24, -9378.93, -163142.94, -93577.97, -173112.28, -168563.91, 0.00, 0.00, 0.00
11, -8929.30, -9083.39, -9165.76, -9514.15, -163058.70, -93899.09, -173171.08, -168712.45, 0.00, 0.00, 0.00
12, -9067.16, -9227.20, -9196.71, -9469.67, -163087.91, -93796.59, -173148.92, -168662.48, 0.00, 0.00, 0.00
13, -9502.08, -9674.64, -9295.80, -9323.76, -163179.00, -93458.14, -173087.41, -168503.69, 0.00, 0.00, 0.00
14, -9417.68, -9593.59, -9279.50, -9354.70, -163161.77, -93522.40, -173103.69, -168536.59, 0.00, 0.00, 0.00
15, -8980.73, -9133.46, -9179.19, -9502.26, -163070.03, -93868.09, -173167.52, -168697.22, 0.00, 0.00, 0.00
16, -9002.14, -9153.73, -9182.12, -9491.29, -163074.34, -93849.98, -173159.20, -168685.80, 0.00, 0.00, 0.00
17, -9443.54, -9614.63, -9281.83, -9341.55, -163165.89, -93502.62, -173093.67, -168523.70, 0.00, 0.00, 0.00
18, -9473.29, -9650.37, -9287.24, -9326.47, -163169.66, -93468.20, -173087.67, -168508.50, 0.01, 0.91, 0.41
19, -9030.19, -9194.39, -9187.01, -9476.63, -163076.48, -93815.45, -173152.78, -168670.59, 0.00, 0.00, 0.00
20, -8953.71, -9100.24, -9168.37, -9505.55, -163060.98, -93887.80, -173164.41, -168701.16, 0.00, 0.00, 0.00
21, -9375.13, -9536.93, -9264.04, -9363.06, -163148.48, -93556.73, -173100.83, -168545.38, 0.00, 0.00, 0.00
22, -9517.84, -9696.23, -9298.08, -9310.78, -163179.55, -93435.09, -173081.00, -168490.38, 0.00, 0.00, 0.00
23, -9098.12, -9267.03, -9202.48, -9450.85, -163090.41, -93758.16, -173140.88, -168642.20, 0.00, 0.00, 0.00
24, -8906.23, -9061.71, -9155.25, -9512.19, -163049.72, -93911.66, -173165.53, -168710.11, 0.00, 0.00, 0.00
25, -9299.91, -9452.40, -9245.17, -9390.44, -163131.34, -93621.55, -173111.80, -168575.70, 0.00, 0.00, 0.00
26, -9551.06, -9719.16, -9305.86, -9304.29, -163187.42, -93420.32, -173079.59, -168484.30, 0.00, 0.00, 0.00
27, -9183.68, -9356.82, -9224.63, -9426.56, -163110.28, -93698.30, -173132.38, -168616.13, 0.00, 0.90, 0.41
28, -8894.12, -9054.29, -9156.75, -9519.54, -163051.19, -93925.70, -173171.86, -168718.69, 0.00, 0.00, 0.00
29, -9206.97, -9369.09, -9224.70, -9416.97, -163112.77, -93687.31, -173122.64, -168605.08, 0.00, 0.00, 0.00
30, -9555.28, -9718.09, -9302.33, -9299.13, -163184.58, -93416.59, -173074.48, -168478.81, 0.00, 0.00, 0.00
31, -9274.66, -9438.85, -9242.65, -9395.67, -163127.78, -93631.25, -173118.66, -168582.80, 0.00, 0.00, 0.00
32, -8901.51, -9060.97, -9157.78, -9515.88, -163052.17, -93919.92, -173171.31, -168714.98, 0.00, 0.00, 0.00
33, -9117.41, -9279.77, -9203.35, -9441.76, -163093.34, -93751.91, -173133.81, -168633.20, 0.00, 0.00, 0.00
34, -9524.53, -9698.58, -9295.17, -9304.34, -163178.08, -93434.22, -173076.06, -168485.75, 0.00, 0.00, 0.00
35, -9359.55, -9523.38, -9258.23, -9364.15, -163142.22, -93564.91, -173102.92, -168550.36, 0.00, 0.00, 0.00
36, -8935.09, -9088.08, -9162.49, -9504.27, -163056.69, -93895.54, -173164.69, -168703.50, 0.00, 0.00, 0.00
37, -9042.40, -9202.82, -9185.65, -9467.42, -163078.45, -93813.35, -173145.22, -168661.88, 0.01, 0.90, 0.41
38, -9481.59, -9654.77, -9285.00, -9318.89, -163169.55, -93469.88, -173081.83, -168500.83, 0.00, 0.00, 0.00
39, -9424.84, -9601.21, -9274.12, -9339.39, -163157.53, -93511.23, -173093.42, -168522.88, 0.00, 0.00, 0.00
40, -8985.89, -9139.29, -9173.74, -9488.96, -163065.97, -93860.25, -173158.75, -168685.72, 0.00, 0.00, 0.00
41, -8979.79, -9130.11, -9169.18, -9485.72, -163063.86, -93862.52, -173153.42, -168683.06, 0.00, 0.00, 0.00
42, -9415.09, -9585.14, -9264.13, -9332.46, -163150.34, -93512.37, -173083.61, -168517.22, 0.00, 0.00, 0.00
43, -9476.56, -9654.66, -9279.13, -9310.17, -163163.28, -93458.20, -173076.64, -168494.08, 0.00, 0.00, 0.00
44, -9037.50, -9204.31, -9181.07, -9461.14, -163072.27, -93804.86, -173142.95, -168657.19, 0.00, 0.00, 0.00
45, -8932.23, -9079.28, -9153.75, -9497.03, -163049.28, -93896.75, -173156.25, -168696.13, 0.00, 0.00, 0.00
46, -9345.89, -9505.95, -9246.54, -9356.57, -163134.11, -93571.40, -173092.63, -168542.39, 0.00, 0.00, 0.00
47, -9516.79, -9696.21, -9287.91, -9296.00, -163172.22, -93429.51, -173070.36, -168478.08, 0.01, 0.90, 0.41
48, -9109.05, -9279.73, -9195.87, -9433.40, -163086.23, -93744.94, -173129.98, -168626.66, 0.00, 0.00, 0.00
49, -8894.59, -9051.50, -9146.54, -9506.38, -163043.66, -93921.52, -173162.02, -168706.84, 0.00, 0.00, 0.00
50, -9270.83, -9424.66, -9230.76, -9387.20, -163119.81, -93640.88, -173107.91, -168575.47, 0.00, 0.00, 0.00
51, -9544.89, -9712.93, -9294.62, -9291.28, -163179.08, -93419.47, -173069.89, -168473.66, 0.00, 0.00, 0.00
52, -9199.40, -9372.78, -9221.08, -9411.25, -163109.44, -93687.22, -173123.91, -168602.83, 0.00, 0.00, 0.00
53, -8887.77, -9048.92, -9148.26, -9511.72, -163045.28, -93931.41, -173166.64, -168713.47, 0.00, 0.00, 0.00
54, -9176.35, -9339.85, -9208.34, -9413.15, -163099.58, -93706.58, -173117.25, -168604.39, 0.00, 0.00, 0.00
55, -9543.79, -9708.23, -9290.37, -9289.54, -163175.16, -93421.86, -173066.00, -168471.22, 0.00, 0.00, 0.00
56, -9286.41, -9452.46, -9235.54, -9377.05, -163122.63, -93616.95, -173105.88, -168565.05, 0.00, 0.00, 0.00
57, -8899.57, -9061.22, -9149.04, -9504.72, -163045.59, -93919.55, -173162.69, -168704.75, 0.01, 0.90, 0.41
58, -9093.14, -9255.37, -9191.19, -9441.00, -163083.95, -93773.19, -173130.73, -168634.20, 0.00, 0.00, 0.00
59, -9510.58, -9683.98, -9285.16, -9299.44, -163170.23, -93446.54, -173070.84, -168482.14, 0.00, 0.00, 0.00
60, -9371.80, -9537.13, -9254.05, -9349.44, -163139.41, -93555.39, -173093.53, -168536.44, 0.00, 0.00, 0.00
61, -8937.81, -9091.62, -9155.43, -9491.67, -163050.67, -93891.30, -173155.30, -168691.89, 0.00, 0.00, 0.00
62, -9017.05, -9177.40, -9171.64, -9462.48, -163066.28, -93828.75, -173138.53, -168658.80, 0.00, 0.00, 0.00
63, -9460.96, -9634.65, -9272.69, -9313.90, -163158.72, -93483.28, -173074.69, -168496.88, 0.00, 0.00, 0.00
64, -9435.32, -9612.86, -9269.54, -9324.99, -163154.27, -93502.02, -173082.61, -168508.72, 0.00, 0.00, 0.00
65, -8993.87, -9147.72, -9168.04, -9474.59, -163060.70, -93851.09, -173147.11, -168670.97, 0.00, 0.00, 0.00
66, -8961.33, -9110.66, -9159.54, -9482.82, -163054.94, -93877.73, -173148.72, -168680.47, 0.00, 0.00, 0.00
67, -9396.00, -9565.81, -9257.62, -9334.67, -163144.34, -93534.49, -173083.03, -168519.81, 0.01, 0.91, 0.40
68, -9489.66, -9667.20, -9282.84, -9305.97, -163166.86, -93461.16, -173075.34, -168489.91, 0.00, 0.00, 0.00
69, -9058.27, -9224.88, -9187.66, -9456.22, -163078.28, -93803.12, -173141.88, -168652.02, 0.00, 0.00, 0.00
70, -8924.96, -9071.97, -9153.08, -9499.74, -163048.70, -93914.49, -173157.75, -168699.55, 0.00, 0.00, 0.00
71, -9328.19, -9486.35, -9242.60, -9362.16, -163130.30, -93596.45, -173094.05, -168548.63, 0.00, 0.00, 0.00
72, -9525.42, -9703.34, -9289.97, -9292.38, -163173.58, -93433.77, -173067.58, -168474.17, 0.00, 0.00, 0.00
73, -9134.08, -9305.52, -9204.60, -9428.37, -163093.19, -93740.91, -173128.31, -168620.64, 0.00, 0.00, 0.00
74, -8892.06, -9049.28, -9146.40, -9505.30, -163042.05, -93931.84, -173160.13, -168705.53, 0.00, 0.00, 0.00
75, -9248.01, -9400.47, -9222.84, -9387.67, -163110.70, -93660.11, -173103.95, -168576.03, 0.00, 0.00, 0.00
76, -9545.36, -9711.81, -9292.78, -9285.18, -163175.59, -93422.45, -173063.61, -168467.13, 0.00, 0.00, 0.00
77, -9215.83, -9388.74, -9220.47, -9395.67, -163107.02, -93671.45, -173111.89, -168586.66, 0.01, 0.90, 0.41
78, -8888.01, -9047.49, -9147.03, -9507.00, -163042.47, -93935.17, -173161.59, -168708.75, 0.00, 0.00, 0.00
79, -9158.22, -9320.14, -9206.91, -9420.57, -163096.50, -93732.46, -173120.05, -168611.97, 0.00, 0.00, 0.00
80, -9541.83, -9706.16, -9292.22, -9290.77, -163174.61, -93434.06, -173065.27, -168471.59, 0.00, 0.00, 0.00
81, -9309.48, -9475.11, -9242.58, -9369.43, -163127.09, -93608.77, -173100.59, -168556.13, 0.00, 0.00, 0.00
82, -8907.46, -9068.55, -9152.73, -9502.17, -163046.97, -93922.34, -173159.38, -168701.16, 0.00, 0.00, 0.00
83, -9071.37, -9232.48, -9185.99, -9444.21, -163077.11, -93793.88, -173128.94, -168637.17, 0.00, 0.00, 0.00
84, -9499.31, -9670.95, -9282.19, -9299.08, -163165.30, -93459.37, -173067.56, -168481.23, 0.00, 0.00, 0.00
85, -9388.81, -9552.84, -9257.89, -9339.18, -163140.27, -93545.78, -173086.52, -168524.61, 0.00, 0.00, 0.00
86, -8947.04, -9100.31, -9158.13, -9484.67, -163050.00, -93887.80, -173149.58, -168683.17, 0.00, 0.00, 0.00
87, -8999.68, -9159.43, -9169.51, -9466.48, -163061.83, -93849.14, -173138.47, -168662.48, 0.01, 0.91, 0.41
88, -9447.21, -9619.16, -9271.44, -9317.68, -163155.38, -93502.24, -173074.16, -168500.19, 0.00, 0.00, 0.00
89, -9450.92, -9627.79, -9274.34, -9317.24, -163156.31, -93495.98, -173076.86, -168499.88, 0.00, 0.00, 0.00
90, -9010.32, -9164.57, -9173.69, -9468.22, -163063.48, -93845.95, -173142.58, -168663.28, 0.00, 0.00, 0.00
91, -8949.10, -9096.60, -9157.46, -9484.20, -163050.66, -93893.17, -173146.75, -168680.92, 0.00, 0.00, 0.00
92, -9379.15, -9547.53, -9252.77, -9336.50, -163136.14, -93552.84, -173079.61, -168519.56, 0.00, 0.00, 0.00
93, -9501.21, -9679.42, -9282.84, -9296.16, -163162.78, -93455.13, -173065.91, -168477.16, 0.00, 0.00, 0.00
94, -9077.65, -9245.55, -9189.94, -9444.84, -163076.53, -93791.52, -173132.00, -168637.94, 0.00, 0.00, 0.00
95, -8919.13, -9066.22, -9151.05, -9498.91, -163043.44, -93925.09, -173153.91, -168697.19, 0.00, 0.00, 0.00
96, -9312.52, -9469.67, -9238.89, -9366.48, -163123.61, -93617.75, -173093.00, -168551.86, 0.00, 0.00, 0.00
97, -9536.59, -9714.31, -9291.24, -9287.06, -163171.80, -93433.87, -173061.59, -168466.91, 0.00, 0.90, 0.41
98, -9159.54, -9331.25, -9208.85, -9417.88, -163094.08, -93728.70, -173119.63, -168607.20, 0.00, 0.00, 0.00
99, -8893.38, -9051.85, -9146.54, -9503.96, -163038.83, -93939.33, -173156.20, -168701.55, 0.00, 0.00, 0.00
100, -9230.09, -9384.09, -9220.07, -9394.26, -163104.83, -93684.47, -173104.63, -168580.89, 0.00, 0.00, 0.00
101, -9550.72, -9716.75, -9296.92, -9287.37, -163176.41, -93433.80, -173063.72, -168467.08, 0.00, 0.00, 0.00
102, -9245.37, -9418.44, -9231.20, -9392.00, -163113.69, -93667.02, -173110.05, -168579.44, 0.00, 0.00, 0.00
103, -8897.09, -9056.97, -9151.12, -9507.02, -163043.16, -93942.08, -173159.88, -168705.58, 0.00, 0.00, 0.00
104, -9141.17, -9301.88, -9202.28, -9424.86, -163089.47, -93754.21, -173118.28, -168614.48, 0.00, 0.00, 0.00
105, -9537.62, -9700.90, -9289.97, -9289.67, -163169.61, -93444.02, -173060.45, -168468.52, 0.00, 0.00, 0.00
106, -9331.23, -9497.17, -9246.13, -9358.59, -163127.03, -93596.97, -173091.77, -168542.72, 0.01, 0.90, 0.41
107, -8916.36, -9078.29, -9153.06, -9495.33, -163043.39, -93919.66, -173152.08, -168692.13, 0.00, 0.00, 0.00
108, -9059.65, -9219.83, -9185.76, -9451.30, -163073.78, -93817.17, -173130.64, -168642.81, 0.00, 0.00, 0.00
109, -9497.68, -9668.89, -9286.46, -9307.04, -163166.33, -93480.27, -173070.48, -168486.64, 0.00, 0.00, 0.00
110, -9414.33, -9578.91, -9267.19, -9335.74, -163146.55, -93542.65, -173084.28, -168518.20, 0.00, 0.00, 0.00
111, -8966.31, -9118.35, -9165.09, -9482.01, -163053.88, -93887.43, -173147.38, -168677.81, 0.00, 0.00, 0.00
112, -8991.30, -9149.51, -9170.27, -9472.98, -163059.70, -93870.39, -173140.78, -168667.08, 0.00, 0.00, 0.00
113, -9438.81, -9609.93, -9272.08, -9324.28, -163152.89, -93523.80, -173076.23, -168505.22, 0.00, 0.00, 0.00
114, -9469.79, -9646.12, -9279.53, -9312.00, -163158.25, -93493.08, -173072.69, -168492.67, 0.00, 0.00, 0.00
115, -9028.38, -9183.33, -9177.18, -9460.40, -163063.64, -93838.63, -173135.63, -168653.31, 0.00, 0.00, 0.00
116, -8942.58, -9090.43, -9157.71, -9488.38, -163048.58, -93910.13, -173147.02, -168684.08, 0.00, 0.90, 0.41
117, -9367.97, -9535.46, -9255.34, -9347.43, -163137.48, -93579.95, -173085.28, -168529.98, 0.00, 0.00, 0.00
118, -9513.35, -9689.95, -9288.51, -9294.35, -163167.48, -93457.94, -173065.08, -168474.23, 0.00, 0.00, 0.00
119, -9094.48, -9261.96, -9193.27, -9435.12, -163078.20, -93781.91, -173125.19, -168626.31, 0.00, 0.00, 0.00
120, -8909.83, -9055.99, -9148.84, -9498.13, -163040.03, -93936.51, -173151.50, -168695.47, 0.00, 0.00, 0.00
121, -9288.65, -9442.96, -9233.46, -9370.77, -163117.33, -93641.09, -173092.94, -168555.89, 0.00, 0.00, 0.00
122, -9539.99, -9716.17, -9292.96, -9282.50, -163172.94, -93437.91, -173059.58, -168462.83, 0.00, 0.00, 0.00
123, -9185.52, -9356.69, -9216.29, -9405.52, -163102.02, -93716.86, -173116.42, -168596.61, 0.00, 0.00, 0.00
124, -8894.63, -9052.14, -9147.92, -9501.61, -163040.95, -93947.22, -173156.03, -168700.81, 0.00, 0.00, 0.00
125, -9215.29, -9367.08, -9217.32, -9396.09, -163104.89, -93706.09, -173107.59, -168585.03, 0.00, 0.00, 0.00
126, -9551.15, -9715.68, -9295.44, -9282.52, -163176.69, -93440.46, -173061.27, -168462.64, 0.00, 0.91, 0.41
127, -9271.88, -9443.99, -9235.72, -9376.60, -163120.88, -93652.89, -173105.06, -168565.34, 0.00, 0.00, 0.00
128, -8899.82, -9059.21, -9148.90, -9497.68, -163042.63, -93941.90, -173156.03, -168697.86, 0.00, 0.00, 0.00
129, -9123.58, -9283.33, -9195.78, -9421.06, -163086.13, -93770.62, -173118.95, -168614.56, 0.00, 0.00, 0.00
130, -9533.13, -9696.03, -9287.60, -9286.05, -163169.86, -93455.32, -173061.23, -168468.31, 0.00, 0.00, 0.00
131, -9360.22, -9524.55, -9253.06, -9346.47, -163137.42, -93588.00, -173091.50, -168534.31, 0.00, 0.00, 0.00
132, -8928.92, -9091.44, -9154.51, -9486.75, -163047.61, -93918.85, -173150.83, -168686.52, 0.00, 0.00, 0.00
133, -9040.70, -9201.45, -9174.63, -9443.68, -163067.45, -93829.83, -173127.20, -168639.34, 0.00, 0.00, 0.00
134, -9477.85, -9649.31, -9271.32, -9294.50, -163155.44, -93486.08, -173061.53, -168477.25, 0.00, 0.00, 0.00
135, -9428.39, -9594.24, -9261.91, -9314.55, -163145.31, -93526.83, -173073.95, -168499.61, 0.00, 0.00, 0.00
136, -8979.83, -9133.35, -9162.76, -9466.83, -163055.28, -93879.09, -173141.88, -168665.63, 0.01, 0.91, 0.41
137, -8974.85, -9132.79, -9159.45, -9464.69, -163053.83, -93882.11, -173137.86, -168663.70, 0.00, 0.00, 0.00
138, -9420.17, -9590.60, -9260.46, -9316.74, -163146.03, -93537.40, -173073.33, -168502.69, 0.00, 0.00, 0.00
139, -9481.36, -9659.13, -9275.19, -9295.02, -163158.16, -93484.13, -173066.00, -168480.17, 0.00, 0.00, 0.00
140, -9045.35, -9202.37, -9174.00, -9441.71, -163064.89, -93825.58, -173128.38, -168639.09, 0.00, 0.00, 0.00
141, -8929.83, -9077.51, -9146.54, -9478.53, -163042.33, -93918.36, -173142.28, -168678.69, 0.00, 0.00, 0.00
142, -9348.44, -9516.55, -9243.50, -9340.84, -163130.89, -93595.71, -173082.72, -168527.63, 0.00, 0.00, 0.00
143, -9523.61, -9701.86, -9286.01, -9283.04, -163168.98, -93456.75, -173061.55, -168465.92, 0.00, 0.00, 0.00
144, -9122.93, -9291.64, -9198.21, -9421.71, -163087.33, -93772.94, -173124.36, -168616.48, 0.00, 0.00, 0.00
145, -8909.72, -9058.00, -9147.92, -9495.33, -163042.67, -93949.48, -173154.95, -168696.56, 0.00, 0.00, 0.00
146, -9275.08, -9430.02, -9229.21, -9371.21, -163117.50, -93664.40, -173098.30, -168561.70, 0.01, 0.91, 0.41
147, -9541.42, -9718.36, -9289.03, -9275.93, -163171.78, -93444.02, -173057.39, -168459.58, 0.00, 0.00, 0.00
148, -9200.25, -9372.78, -9211.76, -9389.10, -163099.78, -93704.57, -173106.77, -168582.42, 0.00, 0.00, 0.00
149, -8887.32, -9046.82, -9137.93, -9491.31, -163033.44, -93950.16, -173148.70, -168693.23, 0.00, 0.00, 0.00
150, -9187.44, -9340.62, -9203.02, -9393.21, -163092.88, -93725.38, -173103.09, -168585.36, 0.00, 0.00, 0.00
151, -9540.33, -9705.53, -9284.22, -9272.22, -163166.64, -93444.03, -173052.42, -168454.52, 0.00, 0.00, 0.00
152, -9286.05, -9460.96, -9231.67, -9359.43, -163117.06, -93638.70, -173094.11, -168549.17, 0.00, 0.00, 0.00
153, -8900.64, -9062.22, -9144.30, -9489.03, -163038.52, -93942.79, -173149.97, -168690.48, 0.00, 0.00, 0.00
154, -9098.39, -9258.23, -9185.70, -9421.57, -163077.14, -93792.19, -173116.84, -168617.23, 0.00, 0.00, 0.00
155, -9516.72, -9679.98, -9278.12, -9280.87, -163160.80, -93466.21, -173055.31, -168464.69, 0.00, 0.00, 0.00
156, -9372.91, -9537.53, -9249.98, -9331.32, -163134.02, -93576.00, -173081.11, -168519.97, 0.01, 0.91, 0.41
157, -8936.79, -9099.08, -9153.78, -9478.68, -163046.27, -93917.42, -173145.69, -168679.25, 0.00, 0.00, 0.00
158, -9021.39, -9181.58, -9169.42, -9446.23, -163061.41, -93851.22, -173127.23, -168643.14, 0.00, 0.00, 0.00
159, -9463.97, -9636.02, -9268.28, -9296.81, -163151.48, -93504.81, -173061.13, -168480.33, 0.00, 0.00, 0.00
160, -9445.69, -9612.43, -9267.10, -9308.63, -163149.13, -93524.08, -173070.31, -168493.55, 0.00, 0.00, 0.00
161, -8997.81, -9150.76, -9169.85, -9463.42, -163060.33, -93878.82, -173140.23, -168661.55, 0.00, 0.00, 0.00
162, -8961.66, -9119.00, -9158.43, -9468.85, -163051.14, -93902.24, -173138.81, -168667.86, 0.00, 0.00, 0.00
163, -9400.52, -9569.45, -9255.25, -9318.58, -163139.31, -93556.71, -173071.14, -168504.47, 0.00, 0.00, 0.00
164, -9492.72, -9668.78, -9278.70, -9288.87, -163159.41, -93482.50, -173061.44, -168472.61, 0.00, 0.00, 0.00
165, -9066.14, -9223.27, -9183.46, -9437.84, -163071.44, -93823.39, -173127.53, -168633.83, 0.00, 0.00, 0.00
166, -8925.77, -9072.59, -9152.12, -9486.24, -163045.70, -93939.75, -173147.64, -168686.36, 0.01, 0.91, 0.41
167, -9330.24, -9496.25, -9242.96, -9348.55, -163128.53, -93621.80, -173085.44, -168535.92, 0.00, 0.00, 0.00
168, -9529.60, -9706.74, -9289.25, -9279.64, -163169.89, -93460.02, -173058.17, -168461.83, 0.00, 0.00, 0.00
169, -9140.28, -9309.50, -9202.82, -9412.23, -163089.16, -93763.82, -173117.34, -168605.38, 0.00, 0.00, 0.00
170, -8902.32, -9049.84, -9146.24, -9492.99, -163038.77, -93958.10, -173150.44, -168692.88, 0.00, 0.00, 0.00
171, -9248.97, -9401.03, -9221.59, -9371.95, -163108.05, -93683.69, -173093.84, -168561.00, 0.00, 0.00, 0.00
172, -9538.29, -9714.02, -9288.22, -9270.47, -163168.41, -93447.48, -173051.47, -168452.22, 0.00, 0.00, 0.00
173, -9219.00, -9390.55, -9217.46, -9378.55, -163102.33, -93693.81, -173099.86, -168569.98, 0.00, 0.00, 0.00
174, -8886.81, -9044.34, -9139.99, -9488.47, -163032.70, -93955.60, -173145.48, -168689.33, 0.00, 0.00, 0.00
175, -9163.77, -9315.58, -9199.11, -9397.23, -163086.75, -93747.57, -173102.13, -168588.63, 0.00, 0.00, 0.00
176, -9532.97, -9696.70, -9282.61, -9269.76, -163163.13, -93452.38, -173047.41, -168450.70, 0.00, 0.90, 0.41
177, -9302.44, -9476.20, -9234.27, -9346.94, -163117.28, -93625.69, -173083.88, -168534.52, 0.00, 0.00, 0.00
178, -8903.75, -9065.02, -9144.95, -9482.08, -163036.53, -93941.36, -173143.09, -168681.17, 0.00, 0.00, 0.00
179, -9076.24, -9235.45, -9181.81, -9424.77, -163071.39, -93813.30, -173115.64, -168618.89, 0.00, 0.00, 0.00
180, -9509.13, -9670.75, -9280.58, -9284.85, -163161.34, -93484.23, -173056.78, -168467.03, 0.00, 0.00, 0.00
181, -9393.37, -9556.13, -9258.56, -9325.35, -163139.88, -93571.46, -173078.45, -168511.72, 0.00, 0.00, 0.00
182, -8945.53, -9107.69, -9155.36, -9469.38, -163045.16, -93911.59, -173138.58, -168668.50, 0.00, 0.00, 0.00
183, -9005.00, -9163.97, -9167.39, -9449.87, -163058.30, -93871.27, -173127.69, -168646.97, 0.00, 0.00, 0.00
184, -9452.02, -9622.18, -9268.20, -9301.32, -163150.27, -93524.95, -173062.67, -168484.89, 0.00, 0.00, 0.00
185, -9458.30, -9625.53, -9268.35, -9298.01, -163148.80, -93516.05, -173062.64, -168481.75, 0.00, 0.00, 0.00
186, -9005.52, -9158.58, -9165.82, -9447.84, -163054.98, -93865.90, -173127.58, -168644.70, 0.01, 0.90, 0.41
187, -8941.90, -9098.08, -9148.84, -9463.33, -163040.92, -93912.04, -173131.22, -168661.81, 0.00, 0.00, 0.00
188, -9376.36, -9544.51, -9245.98, -9316.30, -163129.38, -93572.52, -173066.00, -168502.02, 0.00, 0.00, 0.00
189, -9497.21, -9673.86, -9276.55, -9278.21, -163156.59, -93478.05, -173053.66, -168462.28, 0.00, 0.00, 0.00
190, -9080.26, -9237.28, -9183.86, -9425.26, -163070.95, -93812.77, -173119.27, -168621.94, 0.00, 0.00, 0.00
191, -8913.12, -9058.38, -9146.07, -9481.74, -163039.03, -93949.12, -173143.06, -168683.56, 0.00, 0.00, 0.00
192, -9305.52, -9470.95, -9233.97, -9348.33, -163119.52, -93640.87, -173082.72, -168537.53, 0.00, 0.00, 0.00
193, -9531.63, -9708.37, -9286.81, -9272.11, -163167.39, -93460.82, -173052.39, -168455.02, 0.00, 0.00, 0.00
194, -9159.10, -9328.54, -9206.24, -9402.24, -163092.09, -93755.20, -173111.78, -168595.27, 0.00, 0.00, 0.00
195, -8895.03, -9043.83, -9143.23, -9489.75, -163035.81, -93966.66, -173147.69, -168690.69, 0.01, 0.90, 0.41
196, -9221.90, -9372.40, -9214.66, -9374.83, -163102.22, -93707.12, -173094.41, -168566.72, 0.00, 0.00, 0.00
197, -9532.33, -9705.60, -9287.22, -9267.84, -163168.44, -93456.59, -173050.70, -168451.92, 0.00, 0.00, 0.00
198, -9233.82, -9405.12, -9221.86, -9369.20, -163107.02, -93686.80, -173097.06, -168562.19, 0.00, 0.00, 0.00
199, -8882.92, -9040.88, -9140.79, -9485.90, -163034.20, -93963.58, -173146.13, -168689.13, 0.00, 0.00, 0.00
200, -9137.19, -9287.69, -9194.08, -9401.81, -163083.42, -93773.39, -173105.45, -168596.59, 0.00, 0.00, 0.00
201, -9523.83, -9685.66, -9282.66, -9271.26, -163164.52, -93468.89, -173050.34, -168454.78, 0.00, 0.00, 0.00
202, -9318.53, -9492.23, -9240.86, -9341.17, -163124.97, -93623.50, -173084.27, -168530.73, 0.00, 0.00, 0.00
203, -8907.77, -9067.90, -9148.57, -9480.72, -163041.59, -93948.76, -173145.23, -168682.42, 0.00, 0.00, 0.00
204, -9052.25, -9209.61, -9178.05, -9430.58, -163069.52, -93839.70, -173120.30, -168627.81, 0.00, 0.00, 0.00
205, -9490.35, -9652.44, -9275.28, -9284.98, -163157.69, -93501.45, -173056.78, -168469.72, 0.01, 0.91, 0.41
206, -9400.70, -9563.77, -9256.93, -9313.37, -163139.81, -93564.22, -173071.70, -168501.77, 0.00, 0.00, 0.00
207, -8949.93, -9111.46, -9157.08, -9463.93, -163048.64, -93913.49, -173137.75, -168665.28, 0.00, 0.00, 0.00
208, -8981.24, -9139.43, -9162.29, -9452.75, -163055.20, -93893.62, -173130.27, -168652.75, 0.00, 0.00, 0.00
209, -9428.97, -9598.00, -9262.27, -9303.06, -163146.92, -93546.16, -173064.34, -168489.91, 0.00, 0.00, 0.00
210, -9466.43, -9632.35, -9270.41, -9291.66, -163152.89, -93516.50, -173061.42, -168477.86, 0.00, 0.00, 0.00
211, -9015.60, -9168.48, -9167.99, -9439.92, -163058.34, -93863.04, -173125.36, -168638.92, 0.00, 0.00, 0.00
212, -8923.96, -9080.93, -9146.36, -9466.66, -163040.34, -93932.87, -173134.80, -168668.30, 0.00, 0.00, 0.00
213, -9352.39, -9519.67, -9242.11, -9322.31, -163127.77, -93599.11, -173070.36, -168511.06, 0.00, 0.00, 0.00
214, -9499.02, -9675.02, -9276.96, -9272.87, -163158.72, -93480.89, -173051.98, -168458.25, 0.00, 0.00, 0.00
215, -9091.06, -9249.42, -9185.92, -9416.25, -163074.14, -93807.56, -173115.75, -168613.42, 0.00, 0.91, 0.41
216, -8898.50, -9042.64, -9141.82, -9481.01, -163036.48, -93963.20, -173142.63, -168683.92, 0.00, 0.00, 0.00
217, -9275.12, -9438.00, -9225.37, -9350.65, -163112.83, -93664.34, -173082.81, -168541.45, 0.00, 0.00, 0.00
218, -9525.11, -9701.84, -9283.80, -9266.41, -163165.69, -93465.29, -173048.94, -168450.41, 0.00, 0.00, 0.00
219, -9169.74, -9340.26, -9207.71, -9391.60, -163094.23, -93746.88, -173106.59, -168586.02, 0.00, 0.00, 0.00
220, -8886.43, -9035.71, -9142.82, -9491.94, -163035.55, -93980.52, -173149.03, -168694.05, 0.00, 0.00, 0.00
221, -9194.26, -9346.47, -9210.24, -9389.10, -163096.34, -93741.24, -173099.02, -168579.88, 0.00, 0.00, 0.00
222, -9529.20, -9704.48, -9287.51, -9271.59, -163168.00, -93471.44, -173051.38, -168454.45, 0.00, 0.00, 0.00
223, -9249.87, -9423.20, -9226.44, -9368.42, -163109.09, -93686.38, -173093.84, -168558.05, 0.00, 0.00, 0.00
224, -8883.99, -9043.27, -9141.62, -9487.64, -163033.59, -93972.70, -173145.50, -168688.94, 0.00, 0.00, 0.00
225, -9106.19, -9259.37, -9185.63, -9412.14, -163072.72, -93802.27, -173105.67, -168605.13, 0.01, 0.91, 0.41
226, -9509.17, -9671.02, -9275.91, -9272.44, -163156.69, -93482.93, -173046.64, -168455.30, 0.00, 0.00, 0.00
227, -9327.79, -9502.93, -9240.19, -9336.61, -163121.70, -93619.92, -173077.27, -168524.06, 0.00, 0.00, 0.00
228, -8910.90, -9073.62, -9148.39, -9479.58, -163039.56, -93952.73, -173142.06, -168680.25, 0.00, 0.00, 0.00
229, -9027.74, -9186.68, -9171.41, -9438.31, -163062.00, -93864.60, -173120.72, -168635.30, 0.00, 0.00, 0.00
230, -9469.27, -9632.28, -9266.79, -9286.90, -163148.06, -93517.91, -173052.94, -168470.75, 0.00, 0.00, 0.00
231, -9407.09, -9572.22, -9254.31, -9305.97, -163135.05, -93558.70, -173063.31, -168491.89, 0.00, 0.00, 0.00
232, -8955.03, -9118.66, -9154.76, -9458.07, -163044.64, -93910.59, -173130.75, -168657.34, 0.00, 0.00, 0.00
233, -8956.25, -9114.57, -9152.10, -9455.01, -163043.94, -93911.34, -173125.98, -168653.89, 0.00, 0.00, 0.00
234, -9403.24, -9572.63, -9252.55, -9306.08, -163135.70, -93565.36, -173060.75, -168491.78, 0.00, 0.00, 0.00
235, -9468.18, -9636.64, -9266.45, -9284.83, -163146.77, -93513.03, -173052.97, -168469.27, 0.01, 0.91, 0.41
236, -9024.90, -9179.17, -9167.72, -9434.74, -163055.77, -93858.48, -173118.77, -168631.86, 0.00, 0.00, 0.00
237, -8905.74, -9063.34, -9140.05, -9470.61, -163032.34, -93949.72, -173132.31, -168671.06, 0.00, 0.00, 0.00
238, -9322.71, -9491.60, -9230.69, -9326.78, -163114.84, -93620.26, -173065.73, -168514.13, 0.00, 0.00, 0.00
239, -9500.07, -9676.87, -9272.26, -9266.34, -163153.11, -93479.04, -173043.42, -168450.23, 0.00, 0.00, 0.00
240, -9103.89, -9263.75, -9185.09, -9407.51, -163071.34, -93797.82, -173106.92, -168602.36, 0.00, 0.00, 0.00
241, -8888.48, -9034.02, -9137.10, -9480.20, -163030.52, -93973.03, -173139.47, -168682.27, 0.00, 0.00, 0.00
242, -9253.00, -9416.37, -9220.18, -9357.87, -163106.75, -93689.21, -173084.86, -168548.48, 0.00, 0.00, 0.00
243, -9524.35, -9700.48, -9282.68, -9265.71, -163163.34, -93472.84, -173046.91, -168448.94, 0.00, 0.00, 0.00
244, -9181.25, -9353.36, -9206.84, -9383.80, -163091.28, -93738.99, -173098.42, -168576.09, 0.00, 0.00, 0.00
245, -8879.03, -9029.66, -9136.21, -9487.35, -163028.80, -93985.08, -173142.63, -168689.25, 0.01, 0.91, 0.42
246, -9171.12, -9321.50, -9201.63, -9392.34, -163088.72, -93762.95, -173097.84, -168584.23, 0.00, 0.00, 0.00
247, -9521.33, -9696.01, -9281.65, -9267.99, -163162.59, -93478.73, -173046.66, -168450.92, 0.00, 0.00, 0.00
248, -9263.93, -9439.03, -9225.32, -9356.13, -163108.08, -93674.98, -173085.63, -168545.31, 0.00, 0.00, 0.00
249, -8885.76, -9045.59, -9140.99, -9485.34, -163033.19, -93978.27, -173143.45, -168686.28, 0.00, 0.00, 0.00
250, -9087.08, -9239.36, -9182.05, -9418.85, -163070.09, -93827.55, -173109.06, -168612.08, 0.00, 0.00, 0.00
251, -9502.08, -9663.58, -9275.73, -9276.51, -163157.25, -93500.49, -173049.48, -168459.61, 0.00, 0.00, 0.00
252, -9348.75, -9523.36, -9245.89, -9330.71, -163128.23, -93615.23, -173075.86, -168518.56, 0.00, 0.00, 0.00
253, -8918.32, -9079.97, -9148.52, -9474.48, -163039.88, -93952.56, -173138.64, -168675.11, 0.00, 0.00, 0.00
254, -9006.10, -9165.24, -9165.02, -9443.37, -163055.44, -93886.51, -173120.78, -168639.91, 0.00, 0.00, 0.00
255, -9456.29, -9619.81, -9263.81, -9291.44, -163145.53, -93537.22, -173053.80, -168474.75, 0.00, 0.91, 0.41
0, -9422.98, -9587.60, -9257.67, -9300.29, -163138.50, -93555.15, -173059.66, -168484.73, 0.00, 0.00, 0.00
1, -8964.68, -9129.06, -9154.47, -9450.07, -163043.63, -93904.97, -173124.06, -168647.23, 0.00, 0.00, 0.00
2, -8939.45, -9098.32, -9147.41, -9458.45, -163039.23, -93929.94, -173125.59, -168656.67, 0.00, 0.00, 0.00
3, -9384.02, -9551.71, -9247.86, -9312.00, -163131.25, -93588.12, -173061.97, -168497.45, 0.00, 0.00, 0.00
4, -9481.45, -9649.25, -9271.57, -9283.28, -163151.69, -93515.60, -173053.23, -168466.77, 0.00, 0.00, 0.00
5, -9046.24, -9201.56, -9176.31, -9433.93, -163063.55, -93858.66, -173120.09, -168629.64, 0.00, 0.00, 0.00
6, -8900.22, -9057.69, -9142.51, -9478.23, -163034.78, -93970.30, -173137.33, -168678.28, 0.00, 0.00, 0.00
7, -9305.05, -9473.03, -9229.82, -9337.73, -163113.64, -93648.64, -173071.00, -168524.17, 0.00, 0.00, 0.00
8, -9507.52, -9685.66, -9277.07, -9268.78, -163157.09, -93487.64, -173044.94, -168450.47, 0.00, 0.00, 0.00
9, -9124.74, -9286.59, -9193.92, -9408.43, -163078.72, -93798.71, -173107.86, -168600.19, 0.00, 0.90, 0.40
10, -8885.80, -9030.24, -9140.05, -9488.20, -163032.55, -93991.79, -173143.41, -168688.14, 0.00, 0.00, 0.00
11, -9225.08, -9388.56, -9214.22, -9368.82, -163099.13, -93718.65, -173086.56, -168557.36, 0.00, 0.00, 0.00
12, -9518.87, -9695.74, -9278.79, -9262.05, -163158.66, -93477.61, -173041.92, -168444.34, 0.00, 0.00, 0.00
13, -9195.82, -9368.04, -9207.67, -9374.03, -163091.17, -93728.57, -173091.05, -168565.14, 0.00, 0.00, 0.00
14, -8874.94, -9025.90, -9132.56, -9482.44, -163024.88, -93987.88, -173137.75, -168683.73, 0.00, 0.00, 0.00
15, -9146.94, -9297.03, -9193.23, -9394.57, -163080.83, -93782.69, -173096.19, -168586.39, 0.00, 0.00, 0.00
16, -9519.99, -9693.35, -9281.83, -9269.54, -163163.11, -93490.13, -173046.84, -168451.88, 0.00, 0.00, 0.00
17, -9285.38, -9460.11, -9229.84, -9347.54, -163112.16, -93665.41, -173081.08, -168535.41, 0.00, 0.00, 0.00
18, -8883.75, -9045.06, -9135.40, -9475.06, -163026.73, -93973.70, -173134.89, -168675.36, 0.00, 0.00, 0.00
19, -9060.59, -9213.25, -9172.13, -9418.91, -163060.38, -93845.18, -173106.23, -168613.13, 0.01, 0.90, 0.41
20, -9487.42, -9647.19, -9269.47, -9275.17, -163150.89, -93512.79, -173046.28, -168458.70, 0.00, 0.00, 0.00
21, -9358.34, -9533.20, -9242.58, -9316.32, -163124.28, -93602.13, -173065.38, -168503.45, 0.00, 0.00, 0.00
22, -8918.77, -9081.36, -9141.01, -9460.04, -163031.92, -93942.01, -173126.77, -168660.42, 0.00, 0.00, 0.00
23, -8980.10, -9138.22, -9152.95, -9440.39, -163043.81, -93900.32, -173115.06, -168637.89, 0.00, 0.00, 0.00
24, -9434.47, -9598.08, -9255.03, -9291.17, -163136.84, -93552.87, -173050.64, -168474.97, 0.00, 0.00, 0.00
25, -9435.65, -9601.55, -9259.70, -9294.03, -163140.38, -93551.81, -173056.45, -168478.64, 0.00, 0.00, 0.00
26, -8979.75, -9144.59, -9158.65, -9446.45, -163047.91, -93904.03, -173123.17, -168644.28, 0.00, 0.00, 0.00
27, -8925.92, -9083.99, -9145.04, -9463.77, -163037.63, -93951.22, -173129.13, -168663.44, 0.00, 0.00, 0.00
28, -9364.55, -9532.62, -9243.21, -9317.70, -163127.36, -93612.05, -173064.95, -168504.59, 0.01, 0.90, 0.41
29, -9489.48, -9658.05, -9271.64, -9277.25, -163152.91, -93515.70, -173050.80, -168462.00, 0.00, 0.00, 0.00
30, -9059.23, -9214.48, -9175.82, -9423.76, -163063.70, -93851.06, -173114.59, -168620.09, 0.00, 0.00, 0.00
31, -8885.44, -9043.60, -9135.07, -9476.27, -163028.34, -93982.76, -173135.05, -168677.64, 0.00, 0.00, 0.00
32, -9280.53, -9448.73, -9220.56, -9340.70, -163106.47, -93671.84, -173071.61, -168529.67, 0.00, 0.00, 0.00
33, -9509.66, -9687.18, -9273.16, -9262.25, -163155.66, -93490.17, -173041.56, -168446.45, 0.00, 0.00, 0.00
34, -9137.64, -9301.61, -9190.48, -9394.80, -163077.03, -93787.49, -173100.00, -168588.61, 0.00, 0.00, 0.00
35, -8870.80, -9017.45, -9126.95, -9478.77, -163021.58, -93995.20, -173135.20, -168681.38, 0.00, 0.00, 0.00
36, -9196.20, -9359.99, -9200.58, -9369.27, -163088.61, -93740.40, -173084.66, -168560.84, 0.00, 0.00, 0.00
37, -9520.12, -9697.39, -9277.61, -9262.72, -163160.59, -93490.55, -173044.34, -168446.81, 0.00, 0.00, 0.00
38, -9218.08, -9393.01, -9211.89, -9368.73, -163097.66, -93726.16, -173091.48, -168560.88, 0.01, 0.90, 0.40
39, -8875.14, -9028.23, -9129.48, -9481.03, -163024.14, -93997.48, -173138.33, -168684.27, 0.00, 0.00, 0.00
40, -9119.67, -9269.98, -9180.64, -9396.94, -163071.27, -93806.89, -173096.28, -168591.47, 0.00, 0.00, 0.00
41, -9501.70, -9677.08, -9267.01, -9261.98, -163151.45, -93498.53, -173039.63, -168446.63, 0.00, 0.00, 0.00
42, -9299.04, -9476.76, -9225.55, -9336.08, -163111.38, -93658.08, -173074.63, -168526.00, 0.00, 0.00, 0.00
43, -8892.51, -9055.79, -9134.62, -9474.50, -163029.63, -93981.84, -173136.22, -168676.78, 0.00, 0.00, 0.00
44, -9040.25, -9195.57, -9163.05, -9424.72, -163055.36, -93871.96, -173109.47, -168621.42, 0.00, 0.00, 0.00
45, -9475.22, -9637.56, -9261.47, -9277.45, -163146.58, -93532.64, -173047.58, -168463.13, 0.00, 0.00, 0.00
46, -9377.21, -9554.36, -9243.16, -9310.64, -163128.09, -93601.62, -173064.88, -168499.27, 0.00, 0.00, 0.00
47, -8933.90, -9099.75, -9143.56, -9460.06, -163037.27, -93949.52, -173130.38, -168661.61, 0.00, 0.00, 0.00
48, -8966.96, -9128.16, -9148.99, -9449.62, -163043.67, -93929.67, -173122.56, -168649.66, 0.00, 0.90, 0.40
49, -9420.61, -9586.04, -9248.57, -9298.24, -163134.84, -93579.93, -173055.56, -168485.16, 0.00, 0.00, 0.00
50, -9448.78, -9616.12, -9255.79, -9286.75, -163140.50, -93551.28, -173052.91, -168473.70, 0.00, 0.00, 0.00
51, -8992.87, -9161.38, -9153.96, -9437.40, -163046.36, -93900.39, -173118.33, -168637.11, 0.00, 0.00, 0.00
52, -8908.73, -9070.14, -9132.07, -9461.67, -163028.28, -93967.00, -173126.38, -168663.91, 0.00, 0.00, 0.00
53, -9340.41, -9510.89, -9228.79, -9318.33, -163116.47, -93633.71, -173062.48, -168507.03, 0.00, 0.00, 0.00
54, -9494.95, -9667.64, -9264.57, -9268.58, -163148.81, -93515.20, -173044.56, -168454.09, 0.00, 0.00, 0.00
55, -9076.77, -9235.45, -9172.35, -9412.83, -163063.02, -93843.70, -173108.53, -168610.42, 0.00, 0.00, 0.00
56, -8877.13, -9036.39, -9126.08, -9474.64, -163023.47, -93996.73, -173134.34, -168679.13, 0.00, 0.00, 0.00
57, -9257.82, -9427.05, -9208.61, -9344.37, -163098.42, -93697.19, -173072.95, -168536.42, 0.00, 0.00, 0.00
58, -9507.58, -9687.63, -9263.59, -9254.61, -163148.84, -93493.52, -173035.67, -168440.86, 0.01, 0.90, 0.40
59, -9150.00, -9317.15, -9181.87, -9378.21, -163071.03, -93773.95, -173088.19, -168573.55, 0.00, 0.00, 0.00
60, -8865.39, -9014.50, -9117.83, -9474.17, -163015.53, -94003.27, -173130.89, -168678.64, 0.00, 0.00, 0.00
61, -9170.25, -9336.59, -9186.43, -9370.83, -163077.97, -93763.58, -173082.77, -168564.92, 0.00, 0.00, 0.00
62, -9508.07, -9687.45, -9262.14, -9252.08, -163148.06, -93493.14, -173033.94, -168438.36, 0.00, 0.00, 0.00
63, -9228.16, -9404.74, -9200.71, -9349.09, -163088.98, -93709.62, -173076.95, -168542.70, 0.00, 0.00, 0.00
64, -8868.39, -9024.16, -9116.20, -9468.94, -163013.45, -93996.46, -173128.38, -168674.08, 0.00, 0.00, 0.00
65, -9089.85, -9241.46, -9163.03, -9394.06, -163056.81, -93826.12, -173090.83, -168591.58, 0.00, 0.00, 0.00
66, -9489.05, -9665.39, -9256.24, -9258.34, -163143.61, -93511.00, -173035.69, -168445.84, 0.00, 0.00, 0.00
67, -9311.31, -9491.80, -9219.02, -9321.06, -163106.91, -93646.95, -173064.83, -168513.27, 0.00, 0.00, 0.00
68, -8893.29, -9059.92, -9124.67, -9462.41, -163021.77, -93977.88, -173127.02, -168667.23, 0.01, 0.90, 0.40
69, -9015.20, -9172.02, -9147.36, -9421.46, -163042.78, -93889.21, -173104.55, -168621.53, 0.00, 0.00, 0.00
70, -9455.88, -9618.67, -9246.00, -9271.03, -163134.09, -93544.13, -173040.19, -168459.03, 0.00, 0.00, 0.00
71, -9385.97, -9565.25, -9233.77, -9293.25, -163121.61, -93589.68, -173052.81, -168483.64, 0.00, 0.00, 0.00
72, -8936.92, -9105.23, -9131.76, -9442.74, -163028.13, -93938.70, -173117.58, -168646.55, 0.00, 0.00, 0.00
73, -8940.74, -9103.40, -9130.37, -9440.91, -163028.05, -93940.38, -173114.13, -168644.58, 0.00, 0.00, 0.00
74, -9393.70, -9561.20, -9231.25, -9292.00, -163120.30, -93594.48, -173049.13, -168482.73, 0.00, 0.00, 0.00
75, -9454.27, -9623.12, -9246.47, -9271.70, -163134.11, -93544.22, -173043.53, -168461.89, 0.00, 0.00, 0.00
76, -9004.82, -9174.99, -9148.05, -9424.32, -163043.36, -93893.02, -173110.70, -168626.81, 0.00, 0.00, 0.00
77, -8893.60, -9057.37, -9121.08, -9459.53, -163021.28, -93983.13, -173124.20, -168665.45, 0.00, 0.00, 0.00
78, -9314.35, -9487.06, -9214.30, -9318.24, -163106.31, -93656.22, -173060.77, -168511.09, 0.01, 0.90, 0.40
79, -9495.69, -9670.46, -9255.92, -9258.70, -163144.22, -93516.70, -173039.33, -168448.03, 0.00, 0.00, 0.00
80, -9085.51, -9246.63, -9162.52, -9395.56, -163056.53, -93832.24, -173097.77, -168596.16, 0.00, 0.00, 0.00
81, -8859.11, -9020.40, -9109.01, -9463.17, -163010.19, -94002.52, -173125.30, -168671.47, 0.00, 0.00, 0.00
82, -9224.63, -9394.80, -9188.49, -9338.71, -163082.64, -93716.03, -173066.64, -168535.23, 0.00, 0.00, 0.00
83, -9502.64, -9684.43, -9252.21, -9243.65, -163141.83, -93496.31, -173029.08, -168433.98, 0.00, 0.00, 0.00
84, -9166.03, -9336.95, -9177.29, -9363.73, -163070.63, -93764.70, -173081.94, -168562.91, 0.00, 0.00, 0.00
85, -8857.44, -9008.67, -9105.03, -9463.77, -163007.48, -94007.79, -173124.61, -168673.09, 0.00, 0.00, 0.00
86, -9145.98, -9313.23, -9173.36, -9371.88, -163070.08, -93789.13, -173083.56, -168571.17, 0.00, 0.00, 0.00
87, -9505.84, -9687.40, -9257.29, -9251.30, -163147.75, -93508.68, -173036.00, -168441.69, 0.00, 0.00, 0.00
88, -9249.67, -9429.66, -9201.41, -9340.01, -163093.77, -93706.20, -173075.63, -168537.06, 0.01, 0.90, 0.40
89, -8873.64, -9032.67, -9113.72, -9465.65, -163015.00, -94005.78, -173130.03, -168674.69, 0.00, 0.00, 0.00
90, -9067.88, -9221.19, -9152.97, -9397.30, -163051.28, -93853.70, -173094.67, -168599.69, 0.00, 0.00, 0.00
91, -9473.47, -9650.92, -9243.05, -9252.30, -163134.92, -93524.41, -173032.27, -168444.59, 0.00, 0.00, 0.00
92, -9323.81, -9505.46, -9210.80, -9304.09, -163103.64, -93637.06, -173056.03, -168500.36, 0.00, 0.00, 0.00
93, -8895.59, -9064.01, -9114.08, -9448.48, -163015.98, -93975.09, -173119.27, -168657.58, 0.00, 0.00, 0.00
94, -8988.98, -9148.37, -9130.67, -9417.08, -163031.30, -93908.41, -173100.94, -168622.27, 0.00, 0.00, 0.00
95, -9434.40, -9599.51, -9230.76, -9266.27, -163123.89, -93561.20, -173036.45, -168459.42, 0.00, 0.00, 0.00
96, -9397.39, -9579.71, -9227.87, -9280.20, -163120.33, -93585.16, -173047.17, -168475.08, 0.00, 0.00, 0.00
97, -8947.87, -9119.44, -9127.58, -9432.75, -163028.36, -93938.05, -173114.64, -168640.84, 0.00, 0.00, 0.00
98, -8923.26, -9087.19, -9119.13, -9439.63, -163022.59, -93961.63, -173115.00, -168648.91, 0.01, 0.90, 0.41
99, -9369.56, -9537.71, -9215.65, -9288.33, -163110.22, -93614.47, -173046.55, -168484.41, 0.00, 0.00, 0.00
100, -9460.20, -9630.49, -9238.47, -9258.41, -163130.56, -93541.58, -173037.61, -168453.22, 0.00, 0.00, 0.00
101, -9014.15, -9187.06, -9138.60, -9405.93, -163037.89, -93882.02, -173100.78, -168612.95, 0.00, 0.00, 0.00
102, -8877.35, -9042.98, -9106.26, -9450.34, -163010.86, -93992.81, -173118.38, -168661.42, 0.00, 0.00, 0.00
103, -9289.41, -9463.55, -9199.33, -9315.51, -163096.03, -93677.37, -173058.47, -168513.55, 0.00, 0.00, 0.00
104, -9494.24, -9670.66, -9244.59, -9245.53, -163137.52, -93517.13, -173031.38, -168439.39, 0.00, 0.00, 0.00
105, -9095.44, -9255.79, -9154.63, -9380.51, -163053.33, -93828.09, -173090.63, -168585.70, 0.00, 0.00, 0.00
106, -8846.95, -9007.89, -9097.85, -9458.01, -163004.03, -94018.03, -173123.91, -168671.69, 0.00, 0.00, 0.00
107, -9196.25, -9364.51, -9176.33, -9343.12, -163075.78, -93751.80, -173071.94, -168546.11, 0.00, 0.00, 0.00
108, -9496.41, -9677.28, -9243.83, -9238.07, -163138.36, -93510.51, -173028.61, -168434.27, 0.00, 0.90, 0.41
109, -9173.83, -9342.40, -9170.12, -9350.14, -163068.08, -93765.25, -173077.22, -168554.97, 0.00, 0.00, 0.00
110, -8851.76, -9001.54, -9097.36, -9459.48, -163004.97, -94023.95, -173125.45, -168674.89, 0.00, 0.00, 0.00
111, -9108.98, -9272.31, -9153.46, -9369.76, -163056.34, -93820.30, -173082.36, -168576.09, 0.00, 0.00, 0.00
112, -9484.27, -9663.13, -9237.73, -9238.58, -163134.47, -93520.03, -173027.47, -168435.52, 0.00, 0.00, 0.00
113, -9248.68, -9425.80, -9185.63, -9318.58, -163083.89, -93700.56, -173063.34, -168521.89, 0.00, 0.00, 0.00
114, -8861.39, -9019.29, -9096.47, -9449.51, -163003.89, -94009.67, -173120.47, -168665.30, 0.00, 0.00, 0.00
115, -9035.18, -9184.98, -9134.96, -9394.57, -163040.34, -93883.18, -173094.36, -168605.02, 0.00, 0.00, 0.00
116, -9456.35, -9630.96, -9232.83, -9251.19, -163131.30, -93550.23, -173035.17, -168450.77, 0.00, 0.00, 0.00
117, -9334.74, -9513.57, -9208.36, -9294.82, -163107.06, -93643.66, -173057.06, -168497.97, 0.01, 0.90, 0.41
118, -8899.62, -9065.08, -9110.21, -9442.00, -163018.11, -93986.87, -173121.31, -168658.14, 0.00, 0.00, 0.00
119, -8965.26, -9120.61, -9121.57, -9421.26, -163028.91, -93944.29, -173108.72, -168634.67, 0.00, 0.00, 0.00
120, -9411.63, -9572.67, -9219.78, -9267.50, -163119.38, -93592.48, -173040.83, -168468.38, 0.00, 0.00, 0.00
121, -9400.90, -9579.17, -9220.52, -9268.40, -163119.19, -93590.98, -173044.50, -168470.41, 0.00, 0.00, 0.00
122, -8949.26, -9117.43, -9118.13, -9419.02, -163025.14, -93941.85, -173109.92, -168634.19, 0.00, 0.00, 0.00
123, -8893.74, -9054.20, -9101.63, -9433.24, -163011.88, -93985.77, -173112.83, -168650.20, 0.00, 0.00, 0.00
124, -9335.25, -9499.25, -9197.56, -9285.12, -163099.38, -93644.89, -173046.13, -168488.88, 0.00, 0.00, 0.00
125, -9457.22, -9623.10, -9228.07, -9246.13, -163127.42, -93549.42, -173033.81, -168447.86, 0.00, 0.00, 0.00
126, -9019.69, -9188.51, -9132.18, -9393.97, -163038.33, -93887.31, -173098.88, -168608.05, 0.00, 0.00, 0.00
127, -8856.59, -9018.71, -9094.08, -9447.05, -163006.17, -94017.91, -173120.64, -168666.61, 0.01, 0.90, 0.41
128, -9253.62, -9423.20, -9181.02, -9313.17, -163085.31, -93708.91, -173058.80, -168520.17, 0.00, 0.00, 0.00
129, -9485.21, -9659.51, -9231.74, -9232.54, -163131.52, -93524.48, -173025.86, -168434.36, 0.00, 0.00, 0.00
130, -9108.13, -9268.44, -9149.33, -9365.09, -163054.22, -93823.37, -173085.23, -168577.05, 0.00, 0.00, 0.00
131, -8839.18, -8998.52, -9090.32, -9453.94, -163003.31, -94035.95, -173125.52, -168674.61, 0.00, 0.00, 0.00
132, -9168.06, -9334.36, -9162.70, -9343.16, -163068.78, -93781.14, -173073.94, -168552.64, 0.00, 0.00, 0.00
133, -9488.63, -9667.67, -9235.32, -9232.10, -163136.03, -93525.77, -173028.78, -168434.30, 0.00, 0.00, 0.00
134, -9187.91, -9356.31, -9166.03, -9336.01, -163070.08, -93761.92, -173073.59, -168546.75, 0.00, 0.00, 0.00
135, -8843.87, -8991.75, -9085.67, -9448.33, -162999.39, -94032.11, -173121.25, -168670.66, 0.00, 0.00, 0.00
136, -9080.73, -9241.91, -9138.64, -9367.95, -163048.23, -93847.66, -173083.39, -168582.48, 0.00, 0.00, 0.00
137, -9471.46, -9649.11, -9226.84, -9233.50, -163130.16, -93537.95, -173027.23, -168438.20, 0.01, 0.91, 0.41
138, -9265.16, -9441.91, -9182.34, -9305.48, -163086.84, -93697.82, -173060.39, -168515.47, 0.00, 0.00, 0.00
139, -8864.46, -9022.37, -9090.50, -9441.42, -163003.83, -94017.70, -173119.66, -168663.59, 0.00, 0.00, 0.00
140, -9005.52, -9153.82, -9117.14, -9389.92, -163028.95, -93907.66, -173091.95, -168607.19, 0.00, 0.00, 0.00
141, -9433.46, -9605.80, -9215.83, -9243.72, -163120.59, -93568.76, -173030.75, -168449.69, 0.00, 0.00, 0.00
142, -9341.17, -9518.67, -9198.35, -9277.36, -163102.53, -93638.96, -173048.73, -168486.38, 0.00, 0.00, 0.00
143, -8897.71, -9062.94, -9096.58, -9424.01, -163009.64, -93983.61, -173111.73, -168646.52, 0.00, 0.00, 0.00
144, -8935.42, -9090.03, -9101.27, -9411.92, -163014.70, -93961.59, -173102.63, -168632.94, 0.00, 0.00, 0.00
145, -9387.17, -9545.94, -9203.98, -9262.94, -163109.59, -93614.60, -173038.75, -168471.22, 0.00, 0.00, 0.00
146, -9408.79, -9586.60, -9213.59, -9255.68, -163117.75, -93590.98, -173039.73, -168463.91, 0.00, 0.00, 0.00
147, -8960.66, -9129.53, -9113.32, -9407.49, -163025.28, -93941.38, -173106.03, -168628.53, 0.01, 0.90, 0.40
148, -8878.11, -9037.73, -9090.86, -9430.96, -163006.39, -94006.38, -173112.95, -168654.33, 0.00, 0.00, 0.00
149, -9311.29, -9474.73, -9184.96, -9285.29, -163091.78, -93671.33, -173047.00, -168495.13, 0.00, 0.00, 0.00
150, -9460.55, -9625.80, -9221.46, -9236.43, -163125.31, -93554.70, -173030.53, -168443.56, 0.00, 0.00, 0.00
151, -9032.14, -9199.49, -9127.76, -9381.47, -163038.06, -93885.86, -173094.55, -168600.88, 0.00, 0.00, 0.00
152, -8842.55, -9002.25, -9083.75, -9442.96, -163000.66, -94036.55, -173120.31, -168669.09, 0.00, 0.00, 0.00
153, -9225.17, -9391.87, -9168.01, -9314.91, -163077.56, -93740.76, -173061.75, -168529.22, 0.00, 0.00, 0.00
154, -9485.28, -9657.29, -9226.78, -9228.01, -163131.63, -93538.43, -173027.28, -168436.44, 0.00, 0.00, 0.00
155, -9124.21, -9281.63, -9147.52, -9354.74, -163056.84, -93824.82, -173083.81, -168572.66, 0.00, 0.00, 0.00
156, -8831.26, -8989.18, -9081.04, -9447.59, -162998.81, -94049.41, -173123.80, -168674.69, 0.00, 0.00, 0.00
157, -9139.52, -9303.73, -9148.17, -9342.63, -163059.77, -93809.40, -173074.11, -168559.27, 0.01, 0.91, 0.40
158, -9479.40, -9656.40, -9224.21, -9223.38, -163130.05, -93536.46, -173024.41, -168431.83, 0.00, 0.00, 0.00
159, -9203.24, -9371.17, -9162.18, -9320.70, -163070.13, -93754.97, -173067.58, -168536.64, 0.00, 0.00, 0.00
160, -8842.71, -8989.36, -9078.81, -9440.10, -162996.56, -94039.91, -173119.39, -168668.34, 0.00, 0.00, 0.00
161, -9054.74, -9213.14, -9125.99, -9367.12, -163040.08, -93873.44, -173084.17, -168588.20, 0.00, 0.00, 0.00
162, -9457.63, -9632.64, -9217.39, -9228.88, -163124.52, -93554.48, -173025.97, -168439.41, 0.00, 0.00, 0.00
163, -9278.48, -9454.63, -9179.12, -9291.98, -163087.23, -93692.97, -173055.31, -168507.25, 0.00, 0.00, 0.00
164, -8867.03, -9024.38, -9084.96, -9432.35, -163002.19, -94021.91, -173116.58, -168660.14, 0.00, 0.00, 0.00
165, -8982.45, -9128.52, -9106.48, -9390.57, -163022.48, -93933.29, -173093.52, -168613.98, 0.00, 0.00, 0.00
166, -9413.46, -9583.89, -9203.98, -9239.81, -163112.41, -93587.31, -173028.73, -168451.28, 0.00, 0.00, 0.00
167, -9353.87, -9530.36, -9196.60, -9267.08, -163104.70, -93638.70, -173046.22, -168480.88, 0.01, 0.91, 0.41
168, -8905.85, -9069.35, -9093.47, -9414.89, -163010.31, -93986.02, -173109.25, -168641.88, 0.00, 0.00, 0.00
169, -8911.57, -9064.10, -9088.73, -9408.74, -163006.30, -93982.91, -173101.45, -168635.34, 0.00, 0.00, 0.00
170, -9357.58, -9513.44, -9186.48, -9256.04, -163096.22, -93633.11, -173033.34, -168470.39, 0.00, 0.00, 0.00
171, -9407.22, -9581.90, -9200.94, -9236.97, -163109.09, -93584.76, -173028.45, -168450.91, 0.00, 0.00, 0.00
172, -8964.50, -9131.22, -9103.24, -9389.30, -163018.70, -93933.90, -173095.88, -168615.52, 0.00, 0.00, 0.00
173, -8858.17, -9016.34, -9077.92, -9424.70, -162997.98, -94022.70, -173109.92, -168654.30, 0.00, 0.00, 0.00
174, -9284.85, -9446.12, -9172.26, -9284.65, -163083.95, -93697.23, -173047.16, -168500.66, 0.00, 0.00, 0.00
175, -9459.46, -9622.38, -9212.54, -9223.92, -163120.98, -93556.58, -173024.48, -168436.33, 0.00, 0.00, 0.00
176, -9041.24, -9207.40, -9120.79, -9364.82, -163035.45, -93878.55, -173087.03, -168589.23, 0.00, 0.00, 0.00
177, -8826.97, -8985.04, -9071.63, -9435.16, -162993.31, -94049.25, -173117.20, -168667.47, 0.01, 0.90, 0.40
178, -9196.67, -9360.13, -9154.96, -9314.89, -163069.53, -93768.45, -173063.41, -168535.83, 0.00, 0.00, 0.00
179, -9479.96, -9650.63, -9219.16, -9220.30, -163128.64, -93547.92, -173025.61, -168434.67, 0.00, 0.00, 0.00
180, -9135.45, -9292.49, -9141.91, -9338.85, -163055.44, -93817.55, -173077.31, -168562.52, 0.00, 0.00, 0.00
181, -8820.07, -8976.44, -9068.97, -9437.22, -162991.34, -94056.63, -173118.55, -168670.75, 0.00, 0.00, 0.00
182, -9106.15, -9268.67, -9130.02, -9338.31, -163046.83, -93831.95, -173070.67, -168561.70, 0.00, 0.00, 0.00
183, -9465.49, -9641.13, -9211.40, -9214.33, -163122.33, -93547.01, -173019.75, -168429.03, 0.00, 0.00, 0.00
184, -9214.28, -9381.29, -9156.93, -9306.77, -163069.66, -93750.68, -173062.31, -168528.09, 0.00, 0.00, 0.00
185, -8839.02, -8984.40, -9071.46, -9432.99, -162994.08, -94049.30, -173118.02, -168666.84, 0.00, 0.00, 0.00
186, -9023.29, -9180.35, -9110.73, -9365.96, -163030.16, -93899.98, -173084.59, -168593.59, 0.00, 0.00, 0.00
187, -9436.35, -9609.77, -9202.64, -9221.77, -163115.25, -93569.96, -173022.77, -168439.20, 0.01, 0.91, 0.41
188, -9285.43, -9460.11, -9170.32, -9274.70, -163083.53, -93685.88, -173047.52, -168496.34, 0.00, 0.00, 0.00
189, -8864.86, -9021.66, -9074.27, -9418.82, -162996.36, -94022.23, -173110.14, -168652.84, 0.00, 0.00, 0.00
190, -8954.56, -9099.33, -9090.43, -9386.86, -163012.23, -93955.82, -173091.88, -168617.44, 0.00, 0.00, 0.00
191, -9388.20, -9556.69, -9187.33, -9233.86, -163101.61, -93606.11, -173025.05, -168452.16, 0.00, 0.00, 0.00
192, -9350.43, -9526.85, -9179.35, -9243.36, -163092.52, -93626.23, -173031.03, -168463.06, 0.00, 0.00, 0.00
193, -8903.26, -9067.45, -9079.14, -9395.69, -163000.83, -93978.95, -173098.25, -168628.75, 0.00, 0.00, 0.00
194, -8884.06, -9036.23, -9071.21, -9402.24, -162994.86, -94001.30, -173098.00, -168636.17, 0.00, 0.00, 0.00
195, -9332.10, -9485.99, -9172.71, -9255.41, -163088.31, -93658.77, -173034.61, -168476.83, 0.00, 0.00, 0.00
196, -9411.89, -9585.59, -9193.58, -9225.28, -163107.25, -93586.13, -173024.98, -168445.73, 0.01, 0.91, 0.41
197, -8971.32, -9137.97, -9094.23, -9373.85, -163015.27, -93929.02, -173089.41, -168606.83, 0.00, 0.00, 0.00
198, -8835.04, -8992.58, -9060.64, -9416.54, -162986.97, -94037.45, -173105.73, -168653.56, 0.00, 0.00, 0.00
199, -9249.73, -9410.93, -9152.23, -9280.11, -163069.97, -93720.66, -173044.11, -168503.63, 0.00, 0.00, 0.00
200, -9456.73, -9619.72, -9202.19, -9213.21, -163116.36, -93561.54, -173020.44, -168432.55, 0.00, 0.00, 0.00
201, -9053.60, -9219.27, -9115.29, -9351.92, -163035.23, -93875.22, -173082.83, -168582.48, 0.00, 0.00, 0.00
202, -8814.39, -8972.21, -9060.57, -9430.11, -162987.70, -94064.19, -173116.44, -168668.73, 0.00, 0.00, 0.00
203, -9162.81, -9325.93, -9136.36, -9311.83, -163056.44, -93793.08, -173061.27, -168539.61, 0.00, 0.00, 0.00
204, -9466.03, -9636.37, -9203.06, -9206.93, -163117.80, -93552.27, -173017.56, -168427.67, 0.00, 0.00, 0.00
205, -9139.78, -9296.74, -9128.65, -9317.55, -163046.77, -93804.70, -173064.77, -168546.59, 0.00, 0.00, 0.00
206, -8806.97, -8963.43, -9053.95, -9425.62, -162981.42, -94062.53, -173111.95, -168665.25, 0.01, 0.91, 0.41
207, -9070.38, -9232.12, -9109.32, -9333.66, -163031.88, -93854.84, -173066.41, -168563.97, 0.00, 0.00, 0.00
208, -9444.44, -9619.10, -9192.40, -9202.08, -163108.59, -93554.43, -173010.61, -168422.89, 0.00, 0.00, 0.00
209, -9216.25, -9384.63, -9142.29, -9284.07, -163059.23, -93736.20, -173048.14, -168510.94, 0.00, 0.00, 0.00
210, -8831.87, -8978.25, -9057.49, -9418.89, -162984.27, -94049.25, -173109.50, -168658.38, 0.00, 0.00, 0.00
211, -8993.83, -9149.89, -9092.96, -9361.56, -163017.34, -93920.89, -173081.08, -168595.47, 0.00, 0.00, 0.00
212, -9414.87, -9587.60, -9186.50, -9214.13, -163103.63, -93583.76, -173017.38, -168437.02, 0.00, 0.00, 0.00
213, -9290.10, -9465.38, -9159.03, -9256.10, -163076.38, -93676.29, -173036.84, -168482.64, 0.00, 0.00, 0.00
214, -8859.54, -9016.89, -9059.61, -9401.95, -162985.92, -94017.67, -173099.48, -168641.31, 0.00, 0.00, 0.00
215, -8925.12, -9069.09, -9072.75, -9382.26, -162999.33, -93975.83, -173088.42, -168619.08, 0.00, 0.00, 0.00
216, -9361.92, -9529.87, -9170.94, -9229.37, -163089.66, -93625.04, -173021.58, -168453.72, 0.01, 0.91, 0.41
217, -9357.69, -9534.81, -9173.09, -9232.05, -163090.53, -93625.13, -173026.64, -168457.31, 0.00, 0.00, 0.00
218, -8913.34, -9078.41, -9076.71, -9389.14, -163002.38, -93982.63, -173098.05, -168627.39, 0.00, 0.00, 0.00
219, -8867.70, -9020.94, -9064.24, -9406.49, -162992.56, -94028.29, -173103.89, -168646.34, 0.00, 0.00, 0.00
220, -9305.61, -9459.53, -9159.36, -9256.91, -163079.97, -93685.79, -173036.50, -168484.41, 0.00, 0.00, 0.00
221, -9415.47, -9588.88, -9188.11, -9218.31, -163106.53, -93592.16, -173024.17, -168444.06, 0.00, 0.00, 0.00
222, -8983.59, -9151.23, -9092.24, -9366.41, -163017.34, -93930.68, -173089.25, -168603.97, 0.00, 0.00, 0.00
223, -8819.33, -8977.71, -9050.27, -9415.14, -162981.25, -94056.49, -173106.81, -168657.81, 0.00, 0.00, 0.00
224, -9219.98, -9380.92, -9136.92, -9280.87, -163059.80, -93747.62, -173044.81, -168510.95, 0.00, 0.00, 0.00
225, -9449.49, -9612.57, -9188.89, -9201.12, -163107.77, -93563.88, -173013.47, -168426.33, 0.00, 0.00, 0.00
226, -9058.56, -9226.06, -9102.97, -9332.57, -163026.94, -93863.29, -173071.39, -168568.47, 0.01, 0.91, 0.41
227, -8794.58, -8953.82, -9041.55, -9417.97, -162973.73, -94070.40, -173107.75, -168662.64, 0.00, 0.00, 0.00
228, -9124.56, -9287.73, -9113.21, -9306.26, -163038.84, -93814.54, -173055.47, -168540.13, 0.00, 0.00, 0.00
229, -9449.92, -9621.69, -9185.49, -9194.43, -163105.64, -93557.54, -173009.47, -168420.83, 0.00, 0.00, 0.00
230, -9148.81, -9307.76, -9119.18, -9301.28, -163042.61, -93796.50, -173057.13, -168535.86, 0.00, 0.00, 0.00
231, -8798.14, -8955.14, -9041.17, -9417.04, -162974.23, -94070.29, -173108.48, -168662.95, 0.00, 0.00, 0.00
232, -9040.54, -9202.79, -9094.23, -9336.03, -163022.83, -93884.52, -173069.86, -168573.67, 0.00, 0.00, 0.00
233, -9428.90, -9604.75, -9179.66, -9198.75, -163102.16, -93572.24, -173011.25, -168426.78, 0.00, 0.00, 0.00
234, -9227.49, -9397.70, -9135.38, -9271.93, -163058.98, -93733.34, -173044.89, -168505.53, 0.00, 0.00, 0.00
235, -8824.56, -8972.48, -9042.51, -9406.78, -162975.80, -94051.96, -173103.23, -168652.83, 0.00, 0.00, 0.00
236, -8958.67, -9116.20, -9071.34, -9357.92, -163002.84, -93944.40, -173078.58, -168599.27, 0.01, 0.91, 0.41
237, -9392.22, -9566.34, -9170.50, -9211.65, -163094.89, -93604.95, -173017.61, -168441.98, 0.00, 0.00, 0.00
238, -9293.56, -9470.93, -9146.36, -9239.96, -163070.86, -93670.68, -173029.75, -168473.30, 0.00, 0.00, 0.00
239, -8857.97, -9018.88, -9046.80, -9389.10, -162980.11, -94017.60, -173094.86, -168635.48, 0.00, 0.00, 0.00
240, -8896.75, -9045.13, -9052.10, -9375.91, -162986.72, -93991.90, -173085.17, -168620.75, 0.00, 0.00, 0.00
241, -9339.09, -9510.02, -9155.52, -9228.70, -163082.20, -93646.63, -173023.53, -168461.03, 0.00, 0.00, 0.00
242, -9365.31, -9547.35, -9164.57, -9220.90, -163089.47, -93622.60, -173024.31, -168453.45, 0.00, 0.00, 0.00
243, -8917.50, -9089.38, -9062.72, -9371.62, -162995.38, -93971.29, -173089.06, -168616.77, 0.00, 0.00, 0.00
244, -8842.30, -9001.23, -9042.04, -9396.58, -162978.39, -94037.56, -173097.58, -168644.20, 0.00, 0.00, 0.00
245, -9277.47, -9436.82, -9138.89, -9252.57, -163067.38, -93703.20, -173034.08, -168487.31, 0.00, 0.00, 0.00
246, -9412.92, -9592.59, -9170.83, -9201.14, -163097.05, -93584.78, -173015.02, -168433.52, 0.01, 0.90, 0.41
247, -8988.55, -9163.63, -9074.61, -9343.45, -163007.38, -93911.84, -173075.94, -168587.56, 0.00, 0.00, 0.00
248, -8800.80, -8965.11, -9031.00, -9406.11, -162970.00, -94064.84, -173103.02, -168656.63, 0.00, 0.00, 0.00
249, -9189.96, -9358.92, -9116.09, -9277.52, -163047.23, -93766.37, -173044.05, -168515.88, 0.00, 0.00, 0.00
250, -9446.72, -9617.67, -9176.20, -9192.98, -163103.41, -93568.51, -173012.42, -168426.36, 0.00, 0.00, 0.00
251, -9076.82, -9253.33, -9096.42, -9320.41, -163028.45, -93854.08, -173069.22, -168563.64, 0.00, 0.00, 0.00
252, -8787.07, -8954.87, -9027.74, -9411.87, -162968.03, -94078.63, -173107.55, -168664.41, 0.00, 0.00, 0.00
253, -9099.91, -9272.53, -9095.30, -9305.97, -163029.84, -93835.37, -173057.53, -168548.16, 0.00, 0.00, 0.00
254, -9441.62, -9621.22, -9170.16, -9187.26, -163099.20, -93565.25, -173008.33, -168421.28, 0.00, 0.00, 0.00
255, -9165.15, -9333.89, -9109.68, -9285.94, -163041.23, -93784.02, -173052.47, -168527.31, 0.00, 0.00, 0.00
0, -8794.47, -8960.61, -9026.68, -9407.80, -162968.13, -94073.26, -173106.77, -168661.66, 0.00, 0.91, 0.40
1, -9015.13, -9186.66, -9074.90, -9334.40, -163012.66, -93903.72, -173071.14, -168581.14, 0.00, 0.00, 0.00
2, -9419.90, -9604.19, -9167.59, -9197.81, -163098.81, -93587.84, -173015.66, -168434.97, 0.00, 0.00, 0.00
3, -9246.16, -9428.50, -9128.99, -9260.44, -163060.80, -93724.41, -173044.03, -168502.00, 0.00, 0.00, 0.00
4, -8829.63, -8988.62, -9031.67, -9398.10, -162973.20, -94051.87, -173102.78, -168652.42, 0.00, 0.00, 0.00
5, -8936.72, -9104.38, -9053.22, -9356.17, -162993.75, -93962.30, -173080.09, -168606.17, 0.00, 0.00, 0.00
6, -9370.90, -9555.21, -9149.15, -9204.05, -163082.20, -93615.34, -173014.16, -168442.25, 0.00, 0.00, 0.00
7, -9304.45, -9493.25, -9132.59, -9221.73, -163065.22, -93655.75, -173022.09, -168462.31, 0.00, 0.00, 0.00
8, -8865.44, -9037.08, -9034.15, -9374.83, -162974.78, -94008.46, -173089.98, -168628.63, 0.00, 0.00, 0.00
9, -8877.38, -9033.73, -9036.34, -9375.28, -162978.88, -94012.08, -173089.36, -168629.13, 0.00, 0.00, 0.00
10, -9313.39, -9491.82, -9134.44, -9224.14, -163069.63, -93664.16, -173023.06, -168465.86, 0.01, 0.91, 0.41
11, -9365.56, -9555.39, -9146.98, -9203.33, -163080.27, -93614.38, -173016.33, -168444.50, 0.00, 0.00, 0.00
12, -8924.69, -9104.87, -9049.68, -9356.60, -162990.08, -93963.58, -173083.95, -168609.84, 0.00, 0.00, 0.00
13, -8820.53, -8988.26, -9022.28, -9390.33, -162966.81, -94050.91, -173096.02, -168646.80, 0.00, 0.00, 0.00
14, -9244.75, -9411.60, -9114.97, -9246.98, -163051.33, -93721.02, -173031.02, -168490.34, 0.00, 0.00, 0.00
15, -9408.09, -9594.67, -9154.54, -9187.35, -163087.69, -93582.66, -173009.09, -168427.19, 0.00, 0.00, 0.00
16, -8997.38, -9181.11, -9064.39, -9329.30, -163003.02, -93903.77, -173071.63, -168580.31, 0.00, 0.00, 0.00
17, -8784.28, -8955.96, -9015.08, -9399.89, -162960.78, -94075.80, -173102.20, -168658.55, 0.00, 0.00, 0.00
18, -9157.71, -9332.21, -9096.67, -9276.58, -163034.83, -93789.48, -173045.17, -168523.45, 0.00, 0.00, 0.00
19, -9435.95, -9612.19, -9159.01, -9180.69, -163092.88, -93569.72, -173006.97, -168421.55, 0.00, 0.00, 0.00
20, -9084.67, -9267.10, -9083.79, -9301.92, -163021.77, -93840.35, -173060.95, -168551.89, 0.00, 0.90, 0.41
21, -8776.59, -8949.95, -9014.15, -9404.65, -162960.50, -94085.28, -173105.78, -168664.16, 0.00, 0.00, 0.00
22, -9067.34, -9245.35, -9076.06, -9304.11, -163016.78, -93856.45, -173056.91, -168553.52, 0.00, 0.00, 0.00
23, -9427.38, -9613.73, -9155.81, -9180.26, -163090.14, -93572.83, -173005.31, -168420.83, 0.00, 0.00, 0.00
24, -9177.67, -9349.91, -9101.74, -9271.55, -163037.80, -93773.19, -173046.63, -168518.63, 0.00, 0.00, 0.00
25, -8795.99, -8951.38, -9014.73, -9397.41, -162959.77, -94072.70, -173101.64, -168656.67, 0.00, 0.00, 0.00
26, -8990.63, -9149.22, -9055.52, -9329.77, -162997.09, -93920.04, -173067.30, -168582.27, 0.00, 0.00, 0.00
27, -9403.20, -9575.49, -9147.79, -9186.57, -163082.34, -93592.09, -173006.20, -168428.41, 0.00, 0.00, 0.00
28, -9254.56, -9429.84, -9115.96, -9239.85, -163050.16, -93706.58, -173030.45, -168485.08, 0.00, 0.00, 0.00
29, -8827.33, -8992.08, -9021.66, -9386.48, -162965.00, -94046.33, -173095.84, -168644.39, 0.00, 0.90, 0.41
30, -8913.63, -9076.60, -9039.20, -9354.92, -162982.44, -93978.71, -173078.38, -168609.58, 0.00, 0.00, 0.00
31, -9355.17, -9530.25, -9137.95, -9202.97, -163072.98, -93629.45, -173012.59, -168445.11, 0.00, 0.00, 0.00
32, -9322.22, -9504.16, -9134.04, -9216.54, -163067.34, -93653.11, -173021.78, -168459.58, 0.00, 0.00, 0.00
33, -8879.50, -9049.44, -9035.33, -9370.90, -162976.16, -94007.26, -173089.94, -168626.50, 0.00, 0.00, 0.00
34, -8855.40, -9019.69, -9028.03, -9377.83, -162970.97, -94029.47, -173090.20, -168633.77, 0.00, 0.00, 0.00
35, -9292.78, -9469.34, -9126.60, -9228.43, -163061.42, -93684.27, -173024.42, -168471.59, 0.00, 0.00, 0.00
36, -9378.10, -9563.44, -9146.94, -9198.06, -163079.50, -93611.63, -173013.98, -168440.13, 0.00, 0.00, 0.00
37, -8938.66, -9114.28, -9046.91, -9346.52, -162986.44, -93953.45, -173077.02, -168600.19, 0.00, 0.00, 0.00
38, -8804.42, -8969.89, -9012.38, -9388.72, -162956.14, -94061.52, -173091.95, -168645.73, 0.00, 0.00, 0.00
39, -9213.01, -9389.43, -9102.88, -9249.73, -163038.30, -93740.73, -173028.56, -168493.66, 0.00, 0.90, 0.42
40, -9409.28, -9596.25, -9150.67, -9182.03, -163082.50, -93582.44, -173004.03, -168422.11, 0.00, 0.00, 0.00
41, -9017.39, -9197.00, -9067.81, -9323.47, -163004.25, -93896.81, -173068.64, -168573.91, 0.00, 0.00, 0.00
42, -8779.38, -8947.81, -9013.05, -9402.84, -162956.69, -94088.41, -173102.77, -168660.88, 0.00, 0.00, 0.00
43, -9133.39, -9306.64, -9089.05, -9283.06, -163025.03, -93813.02, -173045.66, -168529.39, 0.00, 0.00, 0.00
44, -9428.66, -9612.70, -9155.59, -9178.23, -163086.61, -93574.37, -173003.30, -168418.31, 0.00, 0.00, 0.00
45, -9098.61, -9280.65, -9083.15, -9290.70, -163017.69, -93826.79, -173051.80, -168539.02, 0.00, 0.00, 0.00
46, -8771.90, -8941.84, -9008.58, -9399.02, -162951.30, -94085.46, -173098.52, -168657.25, 0.00, 0.00, 0.00
47, -9044.66, -9216.88, -9069.13, -9309.55, -163006.50, -93877.23, -173055.81, -168558.13, 0.00, 0.00, 0.00
48, -9419.11, -9601.10, -9151.36, -9177.67, -163081.89, -93577.85, -172999.45, -168416.72, 0.00, 0.00, 0.00
49, -9187.53, -9370.57, -9102.75, -9260.68, -163034.64, -93758.84, -173037.56, -168505.53, -0.00, 0.90, 0.42
50, -8791.75, -8960.95, -9014.73, -9394.30, -162955.81, -94072.37, -173096.81, -168651.42, 0.00, 0.00, 0.00
51, -8961.28, -9129.79, -9049.46, -9334.69, -162987.48, -93939.59, -173066.02, -168585.61, 0.00, 0.00, 0.00
52, -9385.41, -9567.06, -9145.82, -9189.83, -163076.17, -93605.99, -173005.36, -168429.69, 0.00, 0.00, 0.00
53, -9267.30, -9450.94, -9121.55, -9235.09, -163051.52, -93700.55, -173027.39, -168478.19, 0.00, 0.00, 0.00
54, -8830.59, -9001.76, -9021.86, -9381.65, -162960.80, -94043.30, -173089.78, -168637.05, 0.00, 0.00, 0.00
55, -8887.77, -9056.08, -9031.47, -9357.18, -162970.55, -93995.54, -173074.58, -168610.05, 0.00, 0.00, 0.00
56, -9333.04, -9513.21, -9130.84, -9205.10, -163062.08, -93645.58, -173008.55, -168445.63, 0.00, 0.00, 0.00
57, -9327.49, -9513.51, -9130.51, -9205.72, -163060.17, -93643.79, -173011.03, -168446.92, 0.00, 0.00, 0.00
58, -8883.03, -9056.90, -9030.15, -9358.70, -162966.72, -93995.97, -173077.33, -168611.86, 0.00, 0.00, 0.00
59, -8828.71, -8996.42, -9014.30, -9372.09, -162953.47, -94037.48, -173079.52, -168626.81, 0.00, 0.90, 0.41
60, -9262.81, -9440.04, -9112.14, -9224.45, -163044.17, -93696.70, -173014.86, -168467.27, 0.00, 0.00, 0.00
61, -9376.98, -9562.46, -9139.72, -9185.18, -163069.09, -93603.34, -173001.36, -168425.91, 0.00, 0.00, 0.00
62, -8949.30, -9127.13, -9045.01, -9334.47, -162980.41, -93941.38, -173066.53, -168586.17, 0.00, 0.00, 0.00
63, -8791.08, -8959.52, -9006.39, -9386.59, -162947.05, -94070.58, -173087.02, -168643.39, 0.00, 0.00, 0.00
64, -9190.97, -9366.83, -9095.95, -9253.78, -163028.86, -93761.56, -173027.19, -168498.03, 0.00, 0.00, 0.00
65, -9412.43, -9598.89, -9148.03, -9176.55, -163077.11, -93582.88, -172997.89, -168415.98, 0.00, 0.00, 0.00
66, -9031.31, -9213.66, -9063.61, -9308.99, -162996.98, -93881.13, -173055.33, -168558.08, 0.00, 0.00, 0.00
67, -8769.33, -8942.13, -9003.89, -9396.05, -162944.97, -94090.60, -173093.11, -168653.61, 0.00, 0.00, 0.00
68, -9110.12, -9287.33, -9081.51, -9288.58, -163015.53, -93836.17, -173045.09, -168534.88, 0.00, 0.00, 0.00
69, -9429.11, -9614.89, -9153.06, -9177.58, -163081.94, -93582.93, -173000.42, -168416.88, 0.01, 0.90, 0.41
70, -9120.56, -9305.19, -9085.58, -9284.09, -163017.34, -93820.53, -173047.00, -168531.28, 0.00, 0.00, 0.00
71, -8772.66, -8947.94, -9004.04, -9396.09, -162944.64, -94090.83, -173093.67, -168653.61, 0.00, 0.00, 0.00
72, -9018.46, -9197.83, -9055.29, -9310.08, -162991.08, -93896.57, -173050.53, -168559.02, 0.00, 0.00, 0.00
73, -9410.44, -9600.10, -9142.67, -9175.84, -163072.38, -93589.12, -172994.92, -168415.73, 0.00, 0.00, 0.00
74, -9204.02, -9394.35, -9099.08, -9250.25, -163029.75, -93750.95, -173029.14, -168495.31, 0.00, 0.00, 0.00
75, -8792.19, -8971.30, -9004.89, -9385.05, -162945.02, -94071.02, -173087.41, -168642.36, 0.00, 0.00, 0.00
76, -8940.14, -9117.66, -9037.01, -9336.93, -162975.13, -93961.73, -173063.50, -168589.02, 0.00, 0.00, 0.00
77, -9372.47, -9561.45, -9134.93, -9189.81, -163066.00, -93622.78, -173001.94, -168430.83, 0.00, 0.00, 0.00
78, -9285.09, -9475.78, -9118.68, -9225.77, -163048.66, -93695.31, -173020.95, -168469.20, 0.00, 0.00, 0.00
79, -8846.06, -9020.63, -9018.57, -9374.48, -162956.95, -94041.92, -173085.13, -168631.03, 0.01, 0.90, 0.41
80, -8874.22, -9048.92, -9022.77, -9360.87, -162962.78, -94017.73, -173075.61, -168616.50, 0.00, 0.00, 0.00
81, -9319.25, -9506.82, -9122.10, -9208.76, -163054.50, -93667.69, -173009.47, -168451.97, 0.00, 0.00, 0.00
82, -9342.51, -9537.78, -9127.54, -9198.68, -163058.45, -93642.27, -173006.77, -168441.69, 0.00, 0.00, 0.00
83, -8902.30, -9083.84, -9028.70, -9352.77, -162966.31, -93994.31, -173073.89, -168607.67, 0.00, 0.00, 0.00
84, -8826.03, -8995.03, -9008.16, -9376.58, -162949.16, -94058.69, -173081.64, -168633.56, 0.00, 0.00, 0.00
85, -9245.46, -9431.05, -9100.78, -9227.89, -163033.81, -93720.02, -173014.59, -168472.41, 0.00, 0.00, 0.00
86, -9386.93, -9582.55, -9134.53, -9178.56, -163065.17, -93604.54, -172997.58, -168420.98, 0.00, 0.00, 0.00
87, -8966.09, -9152.50, -9039.51, -9322.20, -162975.92, -93932.55, -173058.64, -168575.78, 0.00, 0.00, 0.00
88, -8784.26, -8957.93, -8995.88, -9383.53, -162937.94, -94082.73, -173083.61, -168642.72, 0.00, 0.00, 0.00
89, -9174.41, -9353.98, -9084.51, -9257.44, -163019.17, -93786.22, -173027.66, -168504.52, 0.01, 0.90, 0.40
90, -9417.59, -9612.05, -9141.95, -9171.57, -163073.09, -93587.84, -172994.86, -168413.84, 0.00, 0.00, 0.00
91, -9049.80, -9240.30, -9058.98, -9295.62, -162993.16, -93869.81, -173047.13, -168546.61, 0.00, 0.00, 0.00
92, -8764.83, -8943.09, -8991.82, -9387.58, -162933.58, -94093.69, -173085.47, -168647.30, 0.00, 0.00, 0.00
93, -9081.27, -9261.47, -9059.00, -9280.31, -162994.53, -93848.18, -173033.61, -168529.27, 0.00, 0.00, 0.00
94, -9419.94, -9611.54, -9137.44, -9165.24, -163067.69, -93582.39, -172988.44, -168406.31, 0.00, 0.00, 0.00
95, -9135.83, -9328.17, -9078.52, -9267.06, -163011.22, -93805.04, -173035.20, -168515.61, 0.00, 0.00, 0.00
96, -8772.41, -8950.93, -8994.27, -9386.44, -162935.58, -94090.38, -173086.14, -168646.41, 0.00, 0.00, 0.00
97, -8994.79, -9174.43, -9040.86, -9309.28, -162977.77, -93915.86, -173047.27, -168561.30, 0.00, 0.00, 0.00
98, -9400.90, -9592.03, -9132.77, -9171.97, -163062.77, -93599.20, -172990.56, -168413.81, 0.00, 0.00, 0.00
99, -9220.97, -9414.38, -9094.16, -9235.79, -163024.70, -93737.63, -173018.91, -168481.78, 0.01, 0.90, 0.41
100, -8800.82, -8981.62, -9000.24, -9377.21, -162940.20, -94068.32, -173080.84, -168635.61, 0.00, 0.00, 0.00
101, -8918.19, -9097.03, -9023.29, -9335.09, -162961.58, -93976.68, -173057.84, -168588.61, 0.00, 0.00, 0.00
102, -9354.45, -9545.74, -9120.38, -9183.24, -163051.03, -93630.05, -172992.80, -168425.13, 0.00, 0.00, 0.00
103, -9293.36, -9486.39, -9108.65, -9207.82, -163037.95, -93678.66, -173006.00, -168451.59, 0.00, 0.00, 0.00
104, -8849.88, -9030.28, -9009.79, -9360.82, -162946.83, -94031.17, -173073.00, -168617.02, 0.00, 0.00, 0.00
105, -8853.84, -9031.47, -9010.52, -9358.50, -162949.27, -94030.77, -173070.05, -168614.72, 0.00, 0.00, 0.00
106, -9299.98, -9488.67, -9111.38, -9208.58, -163042.31, -93683.00, -173005.31, -168452.58, 0.00, 0.00, 0.00
107, -9353.02, -9548.93, -9123.92, -9188.56, -163053.09, -93634.61, -172998.73, -168431.78, 0.00, 0.00, 0.00
108, -8914.12, -9098.75, -9024.99, -9340.70, -162960.02, -93982.63, -173064.03, -168595.25, 0.00, 0.00, 0.00
109, -8808.87, -8984.73, -8998.41, -9373.87, -162937.42, -94068.30, -173075.75, -168631.33, 0.00, 0.90, 0.41
110, -9223.09, -9409.68, -9089.83, -9228.86, -163021.25, -93737.05, -173009.98, -168473.72, 0.00, 0.00, 0.00
111, -9395.33, -9591.49, -9133.10, -9173.20, -163061.27, -93603.20, -172991.97, -168414.63, 0.00, 0.00, 0.00
112, -8986.54, -9175.28, -9043.11, -9316.25, -162976.20, -93925.58, -173054.38, -168568.25, 0.00, 0.00, 0.00
113, -8777.71, -8952.23, -8992.60, -9384.29, -162931.58, -94093.64, -173081.98, -168643.25, 0.00, 0.00, 0.00
114, -9150.78, -9332.34, -9077.27, -9262.96, -163008.58, -93808.39, -173027.33, -168509.95, 0.00, 0.00, 0.00
115, -9422.36, -9617.62, -9142.56, -9170.52, -163070.09, -93592.85, -172992.81, -168411.98, 0.00, 0.00, 0.00
116, -9075.19, -9266.27, -9065.00, -9290.14, -162995.53, -93861.81, -173043.25, -168539.95, 0.00, 0.00, 0.00
117, -8770.33, -8948.05, -8994.27, -9390.06, -162932.41, -94102.56, -173085.48, -168648.98, 0.00, 0.00, 0.00
118, -9067.12, -9247.79, -9059.32, -9292.38, -162991.17, -93875.67, -173039.02, -168540.58, 0.01, 0.90, 0.40
119, -9424.63, -9616.66, -9142.33, -9171.41, -163068.47, -93596.02, -172991.47, -168411.14, 0.00, 0.00, 0.00
120, -9161.24, -9353.20, -9087.06, -9263.88, -163015.09, -93799.18, -173033.30, -168510.05, 0.00, 0.00, 0.00
121, -8780.91, -8959.09, -8999.10, -9388.20, -162935.41, -94096.28, -173085.91, -168645.78, 0.00, 0.00, 0.00
122, -8978.07, -9157.15, -9039.74, -9318.51, -162972.42, -93940.29, -173050.19, -168569.45, 0.00, 0.00, 0.00
123, -9395.24, -9584.50, -9133.39, -9176.20, -163058.94, -93613.30, -172990.47, -168416.80, 0.00, 0.00, 0.00
124, -9242.00, -9434.09, -9100.60, -9230.15, -163025.95, -93729.91, -173014.67, -168474.23, 0.00, 0.00, 0.00
125, -8811.28, -8992.42, -9004.06, -9374.19, -162938.22, -94066.62, -173077.08, -168630.67, 0.00, 0.00, 0.00
126, -8905.56, -9082.90, -9024.38, -9343.83, -162957.75, -93998.72, -173060.70, -168596.28, 0.00, 0.00, 0.00
127, -9348.86, -9537.85, -9125.68, -9193.83, -163051.03, -93652.09, -172997.48, -168433.75, 0.00, 0.00, 0.00
128, -9313.79, -9506.44, -9118.13, -9205.25, -163041.47, -93674.64, -173003.95, -168446.05, 0.01, 0.90, 0.41
129, -8870.33, -9050.20, -9020.96, -9361.22, -162951.75, -94030.26, -173073.19, -168614.42, 0.00, 0.00, 0.00
130, -8847.47, -9022.30, -9016.58, -9368.67, -162949.33, -94051.71, -173075.00, -168622.58, 0.00, 0.00, 0.00
131, -9288.58, -9474.59, -9115.49, -9218.35, -163039.75, -93704.97, -173008.67, -168459.50, 0.00, 0.00, 0.00
132, -9371.21, -9565.36, -9135.40, -9188.69, -163057.13, -93634.16, -172998.16, -168428.41, 0.00, 0.00, 0.00
133, -8934.77, -9117.05, -9034.78, -9336.14, -162961.84, -93974.04, -173058.83, -168586.48, 0.00, 0.00, 0.00
134, -8805.07, -8977.94, -9004.65, -9380.29, -162935.81, -94082.22, -173076.38, -168633.88, 0.00, 0.00, 0.00
135, -9214.53, -9398.73, -9099.69, -9244.73, -163023.09, -93764.58, -173017.27, -168485.56, 0.00, 0.00, 0.00
136, -9411.89, -9604.99, -9146.83, -9177.20, -163066.41, -93606.84, -172992.59, -168413.89, 0.00, 0.00, 0.00
137, -9013.39, -9199.11, -9058.36, -9314.53, -162982.09, -93917.67, -173051.69, -168561.00, 0.00, 0.00, 0.00
138, -8783.45, -8955.49, -9006.23, -9394.42, -162936.25, -94108.06, -173086.72, -168648.23, 0.00, 0.90, 0.41
139, -9136.32, -9313.95, -9083.06, -9274.21, -163005.88, -93831.46, -173029.88, -168516.64, 0.00, 0.00, 0.00
140, -9425.15, -9615.85, -9149.40, -9170.00, -163067.53, -93594.69, -172987.70, -168406.28, 0.00, 0.00, 0.00
141, -9097.14, -9285.18, -9077.27, -9284.07, -162997.78, -93849.16, -173036.61, -168527.88, 0.00, 0.00, 0.00
142, -8773.84, -8948.32, -9003.77, -9392.90, -162932.50, -94107.59, -173083.72, -168646.52, 0.00, 0.00, 0.00
143, -9049.01, -9224.36, -9063.21, -9301.07, -162985.88, -93895.98, -173038.80, -168544.42, 0.00, 0.00, 0.00
144, -9419.07, -9606.71, -9145.86, -9170.43, -163062.16, -93599.27, -172984.02, -168404.50, 0.00, 0.00, 0.00
145, -9182.41, -9371.93, -9098.30, -9255.92, -163016.00, -93784.27, -173024.09, -168496.25, 0.00, 0.00, 0.00
146, -8792.24, -8966.92, -9011.51, -9389.68, -162937.70, -94096.59, -173083.39, -168641.81, 0.00, 0.00, 0.00
147, -8966.00, -9140.23, -9048.28, -9329.75, -162971.06, -93961.79, -173052.97, -168575.47, 0.00, 0.00, 0.00
148, -9388.65, -9573.56, -9140.68, -9181.11, -163055.83, -93624.68, -172988.44, -168415.77, 0.00, 0.90, 0.41
149, -9265.07, -9452.49, -9115.42, -9226.31, -163030.00, -93720.23, -173009.56, -168463.92, 0.00, 0.00, 0.00
150, -8827.04, -9003.44, -9018.01, -9374.12, -162941.27, -94063.58, -173073.58, -168623.98, 0.00, 0.00, 0.00
151, -8893.58, -9066.87, -9032.00, -9352.57, -162955.03, -94016.69, -173061.17, -168599.53, 0.00, 0.00, 0.00
152, -9338.76, -9523.34, -9132.25, -9200.51, -163047.41, -93666.66, -172995.81, -168435.23, 0.00, 0.00, 0.00
153, -9334.33, -9522.54, -9132.61, -9202.86, -163045.27, -93667.30, -172999.14, -168437.80, 0.00, 0.00, 0.00
154, -8886.25, -9063.01, -9031.65, -9355.79, -162951.16, -94019.68, -173064.80, -168602.31, 0.00, 0.00, 0.00
155, -8832.60, -9004.04, -9018.12, -9369.69, -162940.72, -94060.70, -173068.13, -168617.75, 0.00, 0.00, 0.00
156, -9270.23, -9451.19, -9116.81, -9221.88, -163031.11, -93718.94, -173003.08, -168457.25, 0.00, 0.00, 0.00
157, -9384.74, -9574.53, -9146.60, -9185.58, -163057.83, -93628.80, -172992.02, -168418.91, 0.00, 0.00, 0.00
158, -8957.42, -9136.59, -9049.82, -9333.40, -162966.45, -93965.45, -173054.69, -168577.72, 0.00, 0.90, 0.41
159, -8799.32, -8967.30, -9010.84, -9383.96, -162932.34, -94092.03, -173073.66, -168632.70, 0.00, 0.00, 0.00
160, -9192.78, -9371.66, -9098.86, -9248.01, -163012.70, -93779.34, -173011.55, -168484.03, 0.00, 0.00, 0.00
161, -9409.88, -9599.83, -9146.83, -9166.92, -163056.47, -93597.26, -172978.09, -168398.11, 0.00, 0.00, 0.00
162, -9027.56, -9210.95, -9062.25, -9299.76, -162976.20, -93896.55, -173035.33, -168540.47, 0.00, 0.00, 0.00
163, -8773.66, -8942.46, -9004.60, -9387.53, -162925.19, -94105.13, -173073.59, -168635.95, 0.00, 0.00, 0.00
164, -9119.09, -9292.94, -9087.06, -9282.75, -163000.45, -93852.31, -173029.31, -168520.03, 0.00, 0.00, 0.00
165, -9432.84, -9619.94, -9161.73, -9175.41, -163070.47, -93603.63, -172988.39, -168406.27, 0.00, 0.00, 0.00
166, -9125.08, -9309.19, -9093.74, -9281.90, -163004.77, -93841.60, -173033.94, -168520.19, 0.00, 0.00, 0.00
167, -8780.23, -8951.54, -9013.70, -9394.86, -162932.97, -94112.06, -173081.28, -168643.22, 0.00, 0.00, 0.00
168, -9030.19, -9202.84, -9065.15, -9307.91, -162979.11, -93915.37, -173036.98, -168547.19, 0.00, 0.90, 0.41
169, -9417.48, -9601.33, -9151.79, -9172.98, -163059.23, -93607.41, -172980.41, -168402.59, 0.00, 0.00, 0.00
170, -9203.64, -9390.15, -9107.13, -9246.65, -163015.38, -93769.05, -173013.73, -168481.39, 0.00, 0.00, 0.00
171, -8798.83, -8971.63, -9016.11, -9383.71, -162932.75, -94090.24, -173073.64, -168629.98, 0.00, 0.00, 0.00
172, -8947.87, -9118.71, -9048.46, -9334.33, -162962.70, -93978.27, -173048.78, -168574.81, 0.00, 0.00, 0.00
173, -9381.63, -9562.50, -9145.48, -9185.63, -163051.88, -93637.31, -172985.20, -168414.48, 0.00, 0.00, 0.00
174, -9287.93, -9472.80, -9127.54, -9221.32, -163032.77, -93710.27, -173003.03, -168452.70, 0.00, 0.00, 0.00
175, -8843.00, -9017.19, -9027.31, -9369.61, -162941.02, -94055.87, -173066.41, -168613.98, 0.00, 0.00, 0.00
176, -8878.87, -9047.87, -9032.52, -9355.66, -162946.67, -94029.61, -173056.03, -168598.05, 0.00, 0.00, 0.00
177, -9325.42, -9506.22, -9133.84, -9204.90, -163039.92, -93681.01, -172991.47, -168434.50, 0.00, 0.00, 0.00
178, -9351.32, -9537.47, -9140.88, -9196.89, -163044.77, -93658.14, -172990.30, -168426.00, 0.01, 0.90, 0.41
179, -8906.14, -9080.46, -9040.74, -9350.05, -162951.39, -94009.40, -173056.05, -168590.53, 0.00, 0.00, 0.00
180, -8827.33, -8995.95, -9024.61, -9376.65, -162938.64, -94076.03, -173067.61, -168619.61, 0.00, 0.00, 0.00
181, -9257.89, -9436.30, -9121.41, -9231.36, -163027.56, -93740.06, -173003.69, -168461.83, 0.00, 0.00, 0.00
182, -9398.55, -9584.92, -9155.14, -9183.15, -163058.56, -93626.49, -172986.81, -168411.50, 0.00, 0.00, 0.00
183, -8978.63, -9154.83, -9059.07, -9326.67, -162967.48, -93954.68, -173047.16, -168565.81, 0.00, 0.00, 0.00
184, -8797.18, -8962.80, -9016.63, -9388.16, -162930.67, -94103.84, -173072.56, -168632.75, 0.00, 0.00, 0.00
185, -9178.90, -9354.85, -9102.66, -9258.07, -163009.70, -93803.27, -173013.50, -168490.66, 0.00, 0.00, 0.00
186, -9424.10, -9610.83, -9158.85, -9171.39, -163061.47, -93604.77, -172979.19, -168398.47, 0.00, 0.00, 0.00
187, -9059.72, -9241.78, -9079.35, -9299.93, -162985.61, -93891.77, -173035.38, -168535.77, 0.00, 0.00, 0.00
188, -8781.40, -8948.86, -9014.66, -9393.54, -162928.09, -94116.29, -173075.16, -168637.92, 0.01, 0.91, 0.40
189, -9099.33, -9269.76, -9084.51, -9287.42, -162991.42, -93871.31, -173025.39, -168520.95, 0.00, 0.00, 0.00
190, -9431.74, -9616.30, -9163.19, -9172.89, -163064.94, -93606.76, -172980.88, -168398.91, 0.00, 0.00, 0.00
191, -9149.22, -9332.70, -9103.51, -9275.17, -163007.20, -93830.38, -173027.06, -168508.36, 0.00, 0.00, 0.00
192, -8788.15, -8957.51, -9020.52, -9395.44, -162932.67, -94115.88, -173078.36, -168639.75, 0.00, 0.00, 0.00
193, -9013.99, -9183.53, -9066.52, -9316.47, -162973.88, -93938.26, -173037.56, -168552.11, 0.00, 0.00, 0.00
194, -9416.10, -9597.75, -9156.75, -9177.58, -163057.33, -93620.52, -172979.39, -168402.97, 0.00, 0.00, 0.00
195, -9229.44, -9414.33, -9117.70, -9242.11, -163019.58, -93761.14, -173008.53, -168472.17, 0.00, 0.00, 0.00
196, -8810.01, -8981.02, -9021.03, -9380.31, -162931.38, -94087.97, -173067.06, -168622.31, 0.00, 0.00, 0.00
197, -8931.02, -9100.54, -9047.07, -9339.47, -162955.16, -93996.77, -173046.23, -168576.72, 0.01, 0.90, 0.41
198, -9370.88, -9550.59, -9145.13, -9188.73, -163045.44, -93651.33, -172981.80, -168414.36, 0.00, 0.00, 0.00
199, -9308.41, -9491.47, -9135.40, -9216.65, -163034.56, -93704.25, -172997.48, -168444.03, 0.00, 0.00, 0.00
200, -8858.22, -9031.38, -9034.40, -9367.21, -162941.81, -94054.15, -173062.23, -168607.23, 0.00, 0.00, 0.00
201, -8866.98, -9034.87, -9034.11, -9363.30, -162943.03, -94050.62, -173057.23, -168602.59, 0.00, 0.00, 0.00
202, -9311.31, -9489.81, -9133.19, -9211.20, -163034.42, -93700.74, -172990.52, -168437.88, 0.00, 0.00, 0.00
203, -9366.59, -9550.90, -9147.16, -9193.27, -163045.83, -93655.30, -172985.70, -168418.98, 0.00, 0.00, 0.00
204, -8925.52, -9099.53, -9048.12, -9345.91, -162952.97, -94003.88, -173051.22, -168582.97, 0.00, 0.00, 0.00
205, -8816.71, -8983.81, -9022.46, -9378.39, -162931.73, -94088.32, -173063.22, -168618.69, 0.00, 0.00, 0.00
206, -9233.64, -9409.46, -9112.38, -9231.07, -163013.56, -93753.96, -172995.05, -168458.44, 0.00, 0.00, 0.00
207, -9399.98, -9585.81, -9151.23, -9171.52, -163048.86, -93617.10, -172972.91, -168395.67, 0.01, 0.90, 0.41
208, -8993.72, -9170.41, -9061.24, -9315.18, -162963.55, -93940.18, -173035.39, -168549.84, 0.00, 0.00, 0.00
209, -8787.74, -8951.36, -9013.79, -9385.59, -162922.28, -94109.70, -173065.38, -168626.81, 0.00, 0.00, 0.00
210, -9155.39, -9328.77, -9097.36, -9261.49, -162999.17, -93821.58, -173009.30, -168490.94, 0.00, 0.00, 0.00
211, -9426.94, -9611.90, -9161.00, -9168.62, -163058.31, -93606.45, -172973.38, -168392.16, 0.00, 0.00, 0.00
212, -9079.23, -9259.30, -9084.15, -9289.74, -162984.75, -93877.91, -173025.47, -168521.80, 0.00, 0.00, 0.00
213, -8779.14, -8944.83, -9015.40, -9391.33, -162923.00, -94119.59, -173069.23, -168632.11, 0.00, 0.00, 0.00
214, -9077.16, -9246.42, -9081.29, -9292.85, -162982.45, -93891.12, -173023.08, -168523.03, 0.00, 0.00, 0.00
215, -9425.33, -9607.94, -9160.19, -9167.66, -163056.17, -93607.52, -172971.42, -168389.78, 0.00, 0.00, 0.00
216, -9164.75, -9346.02, -9104.49, -9260.71, -163002.08, -93811.59, -173012.59, -168489.14, 0.00, 0.00, 0.00
217, -8792.24, -8960.19, -9023.44, -9392.18, -162929.89, -94115.46, -173072.38, -168632.33, 0.01, 0.91, 0.41
218, -8998.07, -9165.09, -9069.15, -9327.36, -162971.81, -93963.65, -173041.14, -168560.33, 0.00, 0.00, 0.00
219, -9412.30, -9590.19, -9162.07, -9184.71, -163057.69, -93637.06, -172981.28, -168407.02, 0.00, 0.00, 0.00
220, -9250.36, -9433.64, -9127.60, -9237.82, -163023.45, -93754.12, -173004.89, -168463.84, 0.00, 0.00, 0.00
221, -8820.94, -8991.26, -9028.29, -9379.02, -162932.59, -94087.67, -173064.02, -168617.05, 0.00, 0.00, 0.00
222, -8917.76, -9084.29, -9050.47, -9349.73, -162953.86, -94020.24, -173049.30, -168583.98, 0.00, 0.00, 0.00
223, -9363.86, -9540.55, -9151.61, -9199.62, -163047.08, -93673.48, -172986.11, -168421.89, 0.00, 0.00, 0.00
224, -9327.25, -9508.70, -9144.68, -9212.99, -163038.67, -93699.05, -172994.05, -168436.58, 0.00, 0.00, 0.00
225, -8874.51, -9045.62, -9043.38, -9365.07, -162945.59, -94051.40, -173059.83, -168601.75, 0.00, 0.00, 0.00
226, -8853.10, -9017.68, -9035.02, -9367.93, -162938.95, -94067.38, -173056.91, -168604.66, 0.00, 0.00, 0.00
227, -9291.20, -9467.35, -9130.71, -9214.08, -163026.38, -93717.30, -172987.52, -168437.89, 0.00, 0.90, 0.42
228, -9376.20, -9558.57, -9151.47, -9186.63, -163044.73, -93649.54, -172978.69, -168408.86, 0.00, 0.00, 0.00
229, -8943.04, -9114.42, -9055.67, -9339.79, -162954.88, -93995.59, -173045.33, -168573.05, 0.00, 0.00, 0.00
230, -8808.08, -8972.97, -9025.01, -9382.23, -162928.92, -94101.71, -173062.64, -168619.59, 0.00, 0.00, 0.00
231, -9219.98, -9393.59, -9117.68, -9243.99, -163013.64, -93780.95, -173001.00, -168468.73, 0.00, 0.00, 0.00
232, -9413.37, -9596.14, -9161.96, -9174.85, -163054.56, -93622.78, -172974.36, -168395.69, 0.00, 0.00, 0.00
233, -9017.45, -9192.49, -9072.59, -9311.22, -162968.89, -93932.24, -173032.20, -168541.53, 0.00, 0.00, 0.00
234, -8786.11, -8948.68, -9019.33, -9389.88, -162922.08, -94120.80, -173065.64, -168627.28, 0.00, 0.00, 0.00
235, -9136.19, -9307.06, -9098.21, -9270.88, -162994.66, -93845.41, -173010.97, -168497.19, 0.00, 0.00, 0.00
236, -9428.88, -9610.98, -9165.62, -9169.00, -163057.36, -93611.78, -172970.89, -168388.97, 0.00, 0.00, 0.00
237, -9101.12, -9280.04, -9093.45, -9283.44, -162988.05, -93867.51, -173020.58, -168511.63, 0.01, 0.90, 0.41
238, -8782.83, -8946.49, -9021.41, -9393.12, -162924.23, -94126.43, -173068.80, -168631.28, 0.00, 0.00, 0.00
239, -9060.84, -9226.40, -9083.73, -9303.53, -162980.73, -93916.87, -173026.91, -168531.72, 0.00, 0.00, 0.00
240, -9423.61, -9604.48, -9165.67, -9172.78, -163057.05, -93620.63, -172972.41, -168392.14, 0.00, 0.00, 0.00
241, -9187.66, -9368.64, -9114.91, -9255.97, -163007.59, -93803.43, -173009.36, -168481.16, 0.00, 0.00, 0.00
242, -8798.52, -8964.66, -9027.58, -9388.72, -162929.03, -94114.43, -173067.81, -168625.80, 0.00, 0.00, 0.00
243, -8977.89, -9142.51, -9067.63, -9332.32, -162965.77, -93983.20, -173040.81, -168563.06, 0.00, 0.00, 0.00
244, -9399.78, -9575.84, -9160.46, -9184.82, -163051.25, -93647.46, -172977.28, -168404.55, 0.00, 0.00, 0.00
245, -9267.41, -9448.46, -9132.74, -9228.19, -163023.92, -93742.05, -172997.06, -168451.55, 0.00, 0.00, 0.00
246, -8833.83, -9002.21, -9035.67, -9376.09, -162935.22, -94085.15, -173061.50, -168611.73, 0.00, 0.00, 0.00
247, -8902.92, -9068.19, -9052.01, -9356.57, -162951.25, -94040.16, -173051.48, -168589.33, 0.01, 0.91, 0.42
248, -9351.21, -9526.34, -9152.99, -9205.68, -163044.14, -93691.38, -172986.73, -168425.89, 0.00, 0.00, 0.00
249, -9347.59, -9527.21, -9155.21, -9210.75, -163044.23, -93695.20, -172992.30, -168430.95, 0.00, 0.00, 0.00
250, -8892.35, -9063.27, -9051.72, -9360.06, -162948.25, -94043.82, -173055.42, -168592.52, 0.00, 0.00, 0.00
251, -8841.75, -9005.45, -9036.83, -9372.67, -162936.20, -94082.87, -173057.17, -168606.33, 0.00, 0.00, 0.00
252, -9274.95, -9448.48, -9131.60, -9221.77, -163022.98, -93738.34, -172988.89, -168442.66, 0.00, 0.00, 0.00
253, -9389.25, -9570.08, -9159.45, -9184.67, -163047.97, -93648.27, -172976.67, -168403.53, 0.00, 0.00, 0.00
254, -8964.10, -9135.18, -9065.24, -9335.12, -162959.67, -93987.80, -173042.19, -168565.41, 0.00, 0.00, 0.00
255, -8800.91, -8963.56, -9026.66, -9384.65, -162926.83, -94113.34, -173061.66, -168620.23, 0.00, 0.00, 0.00
0, -9200.49, -9371.82, -9116.52, -9250.74, -163008.63, -93802.38, -173001.47, -168473.34, 0.00, 0.00, 0.00
1, -9420.97, -9603.67, -9168.22, -9174.21, -163056.13, -93625.33, -172972.23, -168391.75, 0.01, 0.91, 0.41
2, -9041.41, -9216.72, -9083.88, -9307.40, -162975.80, -93924.80, -173029.77, -168534.30, 0.00, 0.00, 0.00
3, -8783.10, -8944.25, -9021.59, -9390.12, -162920.25, -94127.93, -173063.19, -168624.80, 0.00, 0.00, 0.00
4, -9111.15, -9280.60, -9093.23, -9274.14, -162985.72, -93864.23, -173008.27, -168498.27, 0.00, 0.00, 0.00
5, -9424.50, -9605.04, -9164.13, -9164.19, -163051.70, -93613.22, -172963.84, -168381.41, 0.00, 0.00, 0.00
6, -9119.62, -9296.85, -9098.70, -9273.76, -162988.83, -93854.52, -173012.58, -168498.38, 0.00, 0.00, 0.00
7, -8780.23, -8943.54, -9021.39, -9389.14, -162919.67, -94127.02, -173062.73, -168623.86, 0.00, 0.00, 0.00
8, -9035.31, -9200.51, -9078.43, -9307.98, -162971.45, -93936.24, -173024.16, -168533.67, 0.00, 0.00, 0.00
9, -9417.26, -9596.81, -9166.36, -9174.54, -163053.75, -93630.43, -172969.44, -168391.22, 0.00, 0.00, 0.00
10, -9206.50, -9387.26, -9120.45, -9247.36, -163008.45, -93790.95, -173001.36, -168469.05, 0.00, 0.00, 0.00
11, -8804.78, -8971.79, -9030.80, -9385.09, -162927.66, -94112.46, -173062.59, -168618.97, 0.01, 0.91, 0.41
12, -8955.72, -9119.42, -9062.83, -9335.61, -162957.22, -94000.19, -173037.45, -168563.63, 0.00, 0.00, 0.00
13, -9384.87, -9559.39, -9156.53, -9184.67, -163043.23, -93657.61, -172971.42, -168400.56, 0.00, 0.00, 0.00
14, -9281.54, -9462.88, -9135.83, -9217.79, -163022.20, -93729.22, -172987.56, -168436.61, 0.00, 0.00, 0.00
15, -8841.39, -9010.03, -9037.17, -9368.00, -162931.83, -94077.02, -173052.83, -168599.63, 0.00, 0.00, 0.00
16, -8880.21, -9043.90, -9044.63, -9355.21, -162939.78, -94051.42, -173044.30, -168585.08, 0.00, 0.00, 0.00
17, -9327.65, -9501.99, -9144.66, -9203.58, -163031.41, -93701.73, -172978.25, -168420.67, 0.00, 0.00, 0.00
18, -9353.87, -9533.55, -9153.11, -9198.41, -163037.69, -93682.33, -172979.14, -168415.22, 0.00, 0.00, 0.00
19, -8901.69, -9072.33, -9051.70, -9349.69, -162943.89, -94031.93, -173043.83, -168578.61, 0.00, 0.00, 0.00
20, -8825.63, -8988.69, -9033.23, -9373.83, -162928.44, -94094.76, -173052.11, -168604.19, 0.00, 0.00, 0.00
21, -9257.78, -9431.12, -9132.01, -9230.73, -163018.94, -93760.67, -172989.95, -168448.02, 0.01, 0.90, 0.41
22, -9401.17, -9581.37, -9167.39, -9184.98, -163051.09, -93649.94, -172974.95, -168399.58, 0.00, 0.00, 0.00
23, -8985.22, -9155.54, -9076.17, -9333.17, -162964.48, -93982.66, -173039.80, -168558.17, 0.00, 0.00, 0.00
24, -8795.21, -8957.77, -9031.45, -9390.88, -162925.92, -94127.77, -173062.98, -168622.09, 0.00, 0.00, 0.00
25, -9178.50, -9348.93, -9114.95, -9258.90, -163002.19, -93824.73, -173001.25, -168477.83, 0.00, 0.00, 0.00
26, -9423.12, -9604.19, -9170.85, -9172.62, -163054.05, -93627.23, -172967.00, -168386.06, 0.00, 0.00, 0.00
27, -9056.88, -9231.99, -9087.82, -9297.86, -162974.41, -93911.21, -173019.73, -168520.14, 0.00, 0.00, 0.00
28, -8779.76, -8940.43, -9023.22, -9390.91, -162917.09, -94134.39, -173059.20, -168621.64, 0.00, 0.00, 0.00
29, -9091.95, -9258.99, -9093.54, -9284.24, -162981.50, -93888.70, -173009.84, -168504.45, 0.00, 0.00, 0.00
30, -9425.66, -9604.79, -9170.29, -9168.75, -163052.59, -93623.38, -172963.63, -168380.92, 0.01, 0.90, 0.41
31, -9139.00, -9316.50, -9106.86, -9267.48, -162991.22, -93844.16, -173006.27, -168486.92, 0.00, 0.00, 0.00
32, -8780.68, -8942.87, -9024.52, -9387.93, -162916.92, -94129.14, -173057.80, -168618.25, 0.00, 0.00, 0.00
33, -9009.74, -9172.31, -9072.89, -9310.66, -162960.75, -93952.72, -173019.22, -168532.69, 0.00, 0.00, 0.00
34, -9408.72, -9586.69, -9166.92, -9175.70, -163049.00, -93639.61, -172965.42, -168388.14, 0.00, 0.00, 0.00
35, -9226.42, -9405.70, -9129.32, -9242.42, -163011.84, -93782.69, -172995.98, -168459.19, 0.00, 0.00, 0.00
36, -8809.47, -8974.81, -9034.78, -9382.86, -162925.59, -94111.50, -173056.63, -168611.25, 0.00, 0.00, 0.00
37, -8933.72, -9096.65, -9060.70, -9341.46, -162949.33, -94018.72, -173034.92, -168564.56, 0.00, 0.00, 0.00
38, -9373.56, -9546.97, -9158.52, -9190.46, -163039.50, -93673.01, -172970.16, -168401.70, 0.00, 0.00, 0.00
39, -9298.64, -9478.17, -9144.14, -9214.19, -163024.80, -93722.80, -172982.31, -168427.78, 0.00, 0.00, 0.00
40, -8849.73, -9017.34, -9040.65, -9362.34, -162929.14, -94069.91, -173044.39, -168588.61, 0.00, 0.90, 0.41
41, -8861.46, -9023.73, -9042.00, -9358.67, -162931.84, -94066.02, -173040.25, -168584.50, 0.00, 0.00, 0.00
42, -9309.50, -9481.16, -9142.44, -9207.82, -163024.13, -93717.35, -172974.59, -168420.72, 0.00, 0.00, 0.00
43, -9363.77, -9541.92, -9156.21, -9190.86, -163035.16, -93673.43, -172970.06, -168402.27, 0.00, 0.00, 0.00
44, -8916.71, -9087.93, -9058.16, -9343.90, -162944.03, -94022.81, -173036.84, -168567.08, 0.00, 0.00, 0.00
45, -8814.23, -8976.15, -9033.21, -9376.65, -162923.17, -94106.18, -173048.72, -168602.56, 0.00, 0.00, 0.00
46, -9239.36, -9410.22, -9130.96, -9237.44, -163013.19, -93780.07, -172988.75, -168450.55, 0.00, 0.00, 0.00
47, -9409.64, -9589.17, -9172.33, -9182.21, -163051.08, -93648.27, -172969.80, -168392.06, 0.00, 0.00, 0.00
48, -9003.77, -9173.89, -9082.23, -9325.64, -162965.67, -93971.24, -173032.25, -168546.19, 0.00, 0.00, 0.00
49, -8789.67, -8950.73, -9032.94, -9392.96, -162923.25, -94137.19, -173060.59, -168620.61, 0.00, 0.00, 0.00
50, -9161.02, -9330.20, -9115.29, -9267.52, -162998.39, -93847.02, -173002.89, -168483.02, 0.00, 0.91, 0.40
51, -9429.11, -9609.55, -9175.88, -9172.95, -163054.70, -93631.03, -172964.77, -168382.53, 0.00, 0.00, 0.00
52, -9083.46, -9257.69, -9100.00, -9295.84, -162981.97, -93904.75, -173018.19, -168513.84, 0.00, 0.00, 0.00
53, -8785.67, -8945.66, -9031.76, -9397.19, -162921.03, -94145.61, -173061.89, -168624.02, 0.00, 0.00, 0.00
54, -9079.19, -9246.42, -9099.82, -9300.69, -162983.64, -93919.21, -173018.20, -168517.59, 0.00, 0.00, 0.00
55, -9432.93, -9611.74, -9181.96, -9180.53, -163060.13, -93641.55, -172970.84, -168389.08, 0.00, 0.00, 0.00
56, -9171.72, -9349.53, -9126.28, -9273.83, -163005.80, -93846.48, -173012.58, -168488.70, 0.00, 0.00, 0.00
57, -8794.72, -8958.00, -9037.61, -9396.20, -162925.69, -94140.27, -173063.83, -168622.67, 0.00, 0.00, 0.00
58, -9001.29, -9162.85, -9081.76, -9329.13, -162966.39, -93985.33, -173030.55, -168548.16, 0.00, 0.00, 0.00
59, -9406.15, -9582.13, -9172.84, -9185.72, -163051.48, -93659.15, -172969.77, -168394.61, 0.00, 0.00, 0.00
60, -9247.45, -9426.78, -9137.66, -9238.40, -163015.94, -93776.02, -172992.73, -168450.97, 0.00, 0.91, 0.40
61, -8824.40, -8990.63, -9043.54, -9384.25, -162930.38, -94113.78, -173057.13, -168609.19, 0.00, 0.00, 0.00
62, -8921.27, -9083.50, -9062.98, -9351.50, -162948.55, -94042.21, -173038.80, -168572.27, 0.00, 0.00, 0.00
63, -9362.50, -9535.79, -9159.54, -9198.01, -163036.66, -93692.32, -172971.03, -168406.11, 0.00, 0.00, 0.00
64, -9319.60, -9500.32, -9153.84, -9213.30, -163030.64, -93720.88, -172981.08, -168423.39, 0.00, 0.00, 0.00
65, -8871.88, -9039.49, -9052.48, -9364.71, -162937.50, -94071.70, -173046.06, -168587.33, 0.00, 0.00, 0.00
66, -8852.72, -9013.61, -9045.10, -9367.75, -162931.73, -94087.09, -173043.98, -168590.13, 0.00, 0.00, 0.00
67, -9295.78, -9467.17, -9143.52, -9217.52, -163021.48, -93740.35, -172977.50, -168426.56, 0.00, 0.00, 0.00
68, -9378.93, -9556.80, -9162.78, -9189.27, -163037.73, -93672.36, -172967.45, -168396.67, 0.00, 0.00, 0.00
69, -8938.84, -9109.81, -9067.37, -9341.58, -162949.00, -94018.20, -173034.69, -168560.89, 0.00, 0.00, 0.00
70, -8808.73, -8971.43, -9036.68, -9384.11, -162923.25, -94123.75, -173051.38, -168607.56, 0.00, 0.91, 0.40
71, -9217.52, -9388.87, -9125.39, -9242.67, -163004.36, -93799.78, -172985.91, -168453.41, 0.00, 0.00, 0.00
72, -9415.83, -9594.80, -9173.47, -9178.86, -163048.64, -93647.59, -172963.72, -168385.20, 0.00, 0.00, 0.00
73, -9025.03, -9195.55, -9088.26, -9319.34, -162967.59, -93961.50, -173026.02, -168535.19, 0.00, 0.00, 0.00
74, -8787.66, -8949.12, -9035.29, -9396.70, -162921.80, -94148.83, -173059.89, -168620.25, 0.00, 0.00, 0.00
75, -9140.77, -9308.52, -9113.12, -9276.78, -162992.48, -93872.09, -173003.84, -168488.61, 0.00, 0.00, 0.00
76, -9430.47, -9610.38, -9178.03, -9173.36, -163052.06, -93636.77, -172961.06, -168378.48, 0.00, 0.00, 0.00
77, -9102.86, -9278.75, -9104.89, -9287.51, -162981.89, -93892.57, -173010.09, -168501.22, 0.00, 0.00, 0.00
78, -8785.67, -8945.66, -9031.13, -9394.57, -162916.36, -94147.51, -173055.61, -168618.11, 0.00, 0.00, 0.00
79, -9052.88, -9218.49, -9089.43, -9300.81, -162969.72, -93933.67, -173009.92, -168514.48, 0.00, 0.00, 0.00
