%OpenBCI Raw EEG Data
%
%Sample Rate = 250.0 Hz
%First Column = SampleIndex
%Other Columns = EEG data in microvolts followed by Accel Data (in G) interleaved with Aux Data
0, -187500.02, -187500.02, -187500.02, -187500.02, -185354.05, -185154.27, -187500.02, -187500.02, 0.00, 0.46, 0.20
1, -187500.02, -187500.02, -187500.02, -187500.02, -185237.84, -185432.77, -187500.02, -187500.02, 0.00, 0.00, 0.00
2, -187500.02, -187500.02, -187500.02, -187500.02, -184957.38, -185949.20, -187500.02, -187500.02, 0.00, 0.00, 0.00
3, -187500.02, -187500.02, -187500.02, -187500.02, -185074.06, -185646.28, -187500.02, -187500.02, 0.00, 0.00, 0.00
4, -187500.02, -187500.02, -187500.02, -187500.02, -185332.36, -185171.50, -187500.02, -187500.02, 0.00, 0.00, 0.00
5, -187500.02, -187500.02, -187500.02, -187500.02, -185311.22, -185319.78, -187500.02, -187500.02, 0.00, 0.00, 0.00
6, -187500.02, -187500.02, -187500.02, -187500.02, -185053.34, -185864.73, -187500.02, -187500.02, 0.00, 0.00, 0.00
7, -187500.02, -187500.02, -187500.02, -187500.02, -184988.50, -185780.05, -187500.02, -187500.02, 0.02, 0.91, 0.40
8, -187500.02, -187500.02, -187500.02, -187500.02, -185207.33, -185281.66, -187500.02, -187500.02, 0.00, 0.00, 0.00
9, -187500.02, -187500.02, -187500.02, -187500.02, -185332.36, -185241.84, -187500.02, -187500.02, 0.00, 0.00, 0.00
10, -187500.02, -187500.02, -187500.02, -187500.02, -185193.16, -185707.47, -187500.02, -187500.02, 0.00, 0.00, 0.00
11, -187500.02, -187500.02, -187500.02, -187500.02, -184951.66, -185850.34, -187500.02, -187500.02, 0.00, 0.00, 0.00
12, -187500.02, -187500.02, -187500.02, -187500.02, -184994.47, -185444.34, -187500.02, -187500.02, 0.00, 0.00, 0.00
13, -187500.02, -187500.02, -187500.02, -187500.02, -185221.84, -185259.56, -187500.02, -187500.02, 0.00, 0.00, 0.00
14, -187500.02, -187500.02, -187500.02, -187500.02, -185412.94, -185481.19, -187500.02, -187500.02, 0.00, 0.00, 0.00
15, -187500.02, -187500.02, -187500.02, -187500.02, -185157.08, -185752.47, -187500.02, -187500.02, 0.00, 0.00, 0.00
16, -187500.02, -187500.02, -187500.02, -187500.02, -184731.78, -185662.39, -187500.02, -187500.02, 0.00, 0.00, 0.00
17, -187500.02, -187500.02, -187500.02, -187500.02, -184817.45, -185495.94, -187500.02, -187500.02, 0.02, 0.91, 0.40
18, -187500.02, -187500.02, -187500.02, -187500.02, -185434.52, -185385.27, -187500.02, -187500.02, 0.00, 0.00, 0.00
19, -187500.02, -187500.02, -187500.02, -187500.02, -185777.41, -185350.81, -187500.02, -187500.02, 0.00, 0.00, 0.00
20, -187500.02, -187500.02, -187500.02, -187500.02, -185055.30, -185487.94, -187500.02, -187500.02, 0.00, 0.00, 0.00
21, -187500.02, -187500.02, -187500.02, -187500.02, -184646.56, -185580.77, -187500.02, -187500.02, 0.00, 0.00, 0.00
22, -187500.02, -187500.02, -187500.02, -187500.02, -185237.55, -185436.44, -187500.02, -187500.02, 0.00, 0.00, 0.00
23, -187500.02, -187500.02, -187500.02, -187500.02, -185889.44, -185277.89, -187500.02, -187500.02, 0.00, 0.00, 0.00
24, -187500.02, -187500.02, -187500.02, -187500.02, -185233.50, -185437.23, -187500.02, -187500.02, 0.00, 0.00, 0.00
25, -187500.02, -187500.02, -187500.02, -187500.02, -184611.77, -185609.55, -187500.02, -187500.02, 0.00, 0.00, 0.00
26, -187500.02, -187500.02, -187500.02, -187500.02, -185054.64, -185488.94, -187500.02, -187500.02, 0.02, 0.91, 0.40
27, -187500.02, -187500.02, -187500.02, -187500.02, -185878.69, -185266.94, -187500.02, -187500.02, 0.00, 0.00, 0.00
28, -187500.02, -187500.02, -187500.02, -187500.02, -185410.66, -185377.52, -187500.02, -187500.02, 0.00, 0.00, 0.00
29, -187500.02, -187500.02, -187500.02, -187500.02, -184642.50, -185592.30, -187500.02, -187500.02, 0.00, 0.00, 0.00
30, -187500.02, -187500.02, -187500.02, -187500.02, -184904.02, -185529.47, -187500.02, -187500.02, 0.00, 0.00, 0.00
31, -187500.02, -187500.02, -187500.02, -187500.02, -185813.38, -185284.72, -187500.02, -187500.02, 0.00, 0.00, 0.00
32, -187500.02, -187500.02, -187500.02, -187500.02, -185597.72, -185328.97, -187500.02, -187500.02, 0.00, 0.00, 0.00
33, -187500.02, -187500.02, -187500.02, -187500.02, -184722.45, -185562.59, -187500.02, -187500.02, 0.00, 0.00, 0.00
34, -187500.02, -187500.02, -187500.02, -187500.02, -184785.02, -185548.81, -187500.02, -187500.02, 0.00, 0.00, 0.00
35, -187500.02, -187500.02, -187500.02, -187500.02, -185686.06, -185307.27, -187500.02, -187500.02, 0.00, 0.00, 0.00
36, -187500.02, -187500.02, -187500.02, -187500.02, -185738.23, -185291.34, -187500.02, -187500.02, 0.02, 0.91, 0.40
37, -187500.02, -187500.02, -187500.02, -187500.02, -184839.39, -185534.53, -187500.02, -187500.02, 0.00, 0.00, 0.00
38, -187500.02, -187500.02, -187500.02, -187500.02, -184709.22, -185575.27, -187500.02, -187500.02, 0.00, 0.00, 0.00
39, -187500.02, -187500.02, -187500.02, -187500.02, -185528.45, -185351.31, -187500.02, -187500.02, 0.00, 0.00, 0.00
40, -187500.02, -187500.02, -187500.02, -187500.02, -185821.78, -185275.45, -187500.02, -187500.02, 0.00, 0.00, 0.00
41, -187500.02, -187500.02, -187500.02, -187500.02, -184987.81, -185482.28, -187500.02, -187500.02, 0.00, 0.00, 0.00
42, -187500.02, -187500.02, -187500.02, -187500.02, -184732.73, -185527.83, -187500.02, -187500.02, 0.00, 0.00, 0.00
43, -187500.02, -187500.02, -187500.02, -187500.02, -185366.67, -185385.73, -187500.02, -187500.02, 0.00, 0.00, 0.00
44, -187500.02, -187500.02, -187500.02, -187500.02, -185626.30, -185434.63, -187500.02, -187500.02, 0.00, 0.00, 0.00
45, -187500.02, -187500.02, -187500.02, -187500.02, -184950.44, -185566.59, -187500.02, -187500.02, 0.00, 0.00, 0.00
46, -187500.02, -187500.02, -187500.02, -187500.02, -184780.80, -185478.84, -187500.02, -187500.02, 0.02, 0.91, 0.40
47, -187500.02, -187500.02, -187500.02, -187500.02, -185273.94, -185379.14, -187500.02, -187500.02, 0.00, 0.00, 0.00
48, -187500.02, -187500.02, -187500.02, -187500.02, -185497.88, -185537.48, -187500.02, -187500.02, 0.00, 0.00, 0.00
49, -187500.02, -187500.02, -187500.02, -187500.02, -184977.08, -185627.00, -187500.02, -187500.02, 0.00, 0.00, 0.00
50, -187500.02, -187500.02, -187500.02, -187500.02, -184860.52, -185432.22, -187500.02, -187500.02, 0.00, 0.00, 0.00
51, -187500.02, -187500.02, -187500.02, -187500.02, -185264.38, -185314.58, -187500.02, -187500.02, 0.00, 0.00, 0.00
52, -187500.02, -187500.02, -187500.02, -187500.02, -185473.16, -185526.67, -187500.02, -187500.02, 0.00, 0.00, 0.00
53, -187500.02, -187500.02, -187500.02, -187500.02, -185064.55, -185631.83, -187500.02, -187500.02, 0.00, 0.00, 0.00
54, -187500.02, -187500.02, -187500.02, -187500.02, -184945.34, -185379.95, -187500.02, -187500.02, 0.00, 0.00, 0.00
55, -187500.02, -187500.02, -187500.02, -187500.02, -185239.47, -185260.50, -187500.02, -187500.02, 0.00, 0.00, 0.00
56, -187500.02, -187500.02, -187500.02, -187500.02, -185319.58, -185584.22, -187500.02, -187500.02, 0.02, 0.91, 0.40
57, -187500.02, -187500.02, -187500.02, -187500.02, -185023.22, -185723.39, -187500.02, -187500.02, 0.00, 0.00, 0.00
58, -187500.02, -187500.02, -187500.02, -187500.02, -185015.31, -185350.22, -187500.02, -187500.02, 0.00, 0.00, 0.00
59, -187500.02, -187500.02, -187500.02, -187500.02, -185235.31, -185196.02, -187500.02, -187500.02, 0.00, 0.00, 0.00
60, -187500.02, -187500.02, -187500.02, -187500.02, -185240.83, -185565.83, -187500.02, -187500.02, 0.00, 0.00, 0.00
61, -187500.02, -187500.02, -187500.02, -187500.02, -185006.86, -185778.28, -187500.02, -187500.02, 0.00, 0.00, 0.00
62, -187500.02, -187500.02, -187500.02, -187500.02, -185036.70, -185363.02, -187500.02, -187500.02, 0.00, 0.00, 0.00
63, -187500.02, -187500.02, -187500.02, -187500.02, -185228.83, -185139.25, -187500.02, -187500.02, 0.00, 0.00, 0.00
64, -187500.02, -187500.02, -187500.02, -187500.02, -185208.81, -185486.64, -187500.02, -187500.02, 0.00, 0.00, 0.00
65, -187500.02, -187500.02, -187500.02, -187500.02, -184985.13, -185813.00, -187500.02, -187500.02, 0.00, 0.00, 0.00
66, -187500.02, -187500.02, -187500.02, -187500.02, -185016.84, -185418.64, -187500.02, -187500.02, 0.02, 0.91, 0.39
67, -187500.02, -187500.02, -187500.02, -187500.02, -185216.97, -185118.92, -187500.02, -187500.02, 0.00, 0.00, 0.00
68, -187500.02, -187500.02, -187500.02, -187500.02, -185209.92, -185398.23, -187500.02, -187500.02, 0.00, 0.00, 0.00
69, -187500.02, -187500.02, -187500.02, -187500.02, -184977.94, -185826.03, -187500.02, -187500.02, 0.00, 0.00, 0.00
70, -187500.02, -187500.02, -187500.02, -187500.02, -185000.78, -185488.78, -187500.02, -187500.02, 0.00, 0.00, 0.00
71, -187500.02, -187500.02, -187500.02, -187500.02, -185219.17, -185105.97, -187500.02, -187500.02, 0.00, 0.00, 0.00
72, -187500.02, -187500.02, -187500.02, -187500.02, -185213.23, -185323.83, -187500.02, -187500.02, 0.00, 0.00, 0.00
73, -187500.02, -187500.02, -187500.02, -187500.02, -184963.00, -185832.84, -187500.02, -187500.02, 0.00, 0.00, 0.00
74, -187500.02, -187500.02, -187500.02, -187500.02, -184995.02, -185574.48, -187500.02, -187500.02, 0.00, 0.00, 0.00
75, -187500.02, -187500.02, -187500.02, -187500.02, -185242.69, -185106.19, -187500.02, -187500.02, 0.00, 0.00, 0.00
76, -187500.02, -187500.02, -187500.02, -187500.02, -185241.02, -185242.41, -187500.02, -187500.02, 0.02, 0.91, 0.40
77, -187500.02, -187500.02, -187500.02, -187500.02, -184971.05, -185800.13, -187500.02, -187500.02, 0.00, 0.00, 0.00
78, -187500.02, -187500.02, -187500.02, -187500.02, -184962.44, -185661.30, -187500.02, -187500.02, 0.00, 0.00, 0.00
79, -187500.02, -187500.02, -187500.02, -187500.02, -185225.38, -185130.02, -187500.02, -187500.02, 0.00, 0.00, 0.00
80, -187500.02, -187500.02, -187500.02, -187500.02, -185266.70, -185159.63, -187500.02, -187500.02, 0.00, 0.00, 0.00
81, -187500.02, -187500.02, -187500.02, -187500.02, -185009.06, -185720.80, -187500.02, -187500.02, 0.00, 0.00, 0.00
82, -187500.02, -187500.02, -187500.02, -187500.02, -184926.53, -185747.64, -187500.02, -187500.02, 0.00, 0.00, 0.00
83, -187500.02, -187500.02, -187500.02, -187500.02, -185186.31, -185186.14, -187500.02, -187500.02, 0.00, 0.00, 0.00
84, -187500.02, -187500.02, -187500.02, -187500.02, -185275.97, -185100.31, -187500.02, -187500.02, 0.00, 0.00, 0.00
85, -187500.02, -187500.02, -187500.02, -187500.02, -185043.11, -185621.19, -187500.02, -187500.02, 0.00, 0.00, 0.00
86, -187500.02, -187500.02, -187500.02, -187500.02, -184890.09, -185818.00, -187500.02, -187500.02, 0.02, 0.91, 0.40
87, -187500.02, -187500.02, -187500.02, -187500.02, -185128.81, -185264.80, -187500.02, -187500.02, 0.00, 0.00, 0.00
88, -187500.02, -187500.02, -187500.02, -187500.02, -185266.83, -185064.33, -187500.02, -187500.02, 0.00, 0.00, 0.00
89, -187500.02, -187500.02, -187500.02, -187500.02, -185076.27, -185516.03, -187500.02, -187500.02, 0.00, 0.00, 0.00
90, -187500.02, -187500.02, -187500.02, -187500.02, -184865.53, -185863.38, -187500.02, -187500.02, 0.00, 0.00, 0.00
91, -187500.02, -187500.02, -187500.02, -187500.02, -185067.77, -185363.22, -187500.02, -187500.02, 0.00, 0.00, 0.00
92, -187500.02, -187500.02, -187500.02, -187500.02, -185254.47, -185053.19, -187500.02, -187500.02, 0.00, 0.00, 0.00
93, -187500.02, -187500.02, -187500.02, -187500.02, -185119.00, -185410.70, -187500.02, -187500.02, 0.00, 0.00, 0.00
94, -187500.02, -187500.02, -187500.02, -187500.02, -184861.27, -185875.30, -187500.02, -187500.02, 0.00, 0.00, 0.00
95, -187500.02, -187500.02, -187500.02, -187500.02, -185006.36, -185472.78, -187500.02, -187500.02, 0.00, 0.00, 0.00
96, -187500.02, -187500.02, -187500.02, -187500.02, -185233.50, -185061.02, -187500.02, -187500.02, 0.02, 0.91, 0.40
97, -187500.02, -187500.02, -187500.02, -187500.02, -185154.47, -185306.14, -187500.02, -187500.02, 0.00, 0.00, 0.00
98, -187500.02, -187500.02, -187500.02, -187500.02, -184869.44, -185843.27, -187500.02, -187500.02, 0.00, 0.00, 0.00
99, -187500.02, -187500.02, -187500.02, -187500.02, -184937.45, -185578.13, -187500.02, -187500.02, 0.00, 0.00, 0.00
100, -187500.02, -187500.02, -187500.02, -187500.02, -185196.17, -185093.92, -187500.02, -187500.02, 0.00, 0.00, 0.00
101, -187500.02, -187500.02, -187500.02, -187500.02, -185181.09, -185212.05, -187500.02, -187500.02, 0.00, 0.00, 0.00
102, -187500.02, -187500.02, -187500.02, -187500.02, -184904.16, -185785.03, -187500.02, -187500.02, 0.00, 0.00, 0.00
103, -187500.02, -187500.02, -187500.02, -187500.02, -184889.59, -185687.06, -187500.02, -187500.02, 0.00, 0.00, 0.00
104, -187500.02, -187500.02, -187500.02, -187500.02, -185153.58, -185141.13, -187500.02, -187500.02, 0.00, 0.00, 0.00
105, -187500.02, -187500.02, -187500.02, -187500.02, -185198.59, -185143.77, -187500.02, -187500.02, 0.02, 0.90, 0.40
106, -187500.02, -187500.02, -187500.02, -187500.02, -184942.03, -185700.80, -187500.02, -187500.02, 0.00, 0.00, 0.00
107, -187500.02, -187500.02, -187500.02, -187500.02, -184849.03, -185777.50, -187500.02, -187500.02, 0.00, 0.00, 0.00
108, -187500.02, -187500.02, -187500.02, -187500.02, -185111.58, -185214.08, -187500.02, -187500.02, 0.00, 0.00, 0.00
109, -187500.02, -187500.02, -187500.02, -187500.02, -185216.97, -185095.86, -187500.02, -187500.02, 0.00, 0.00, 0.00
110, -187500.02, -187500.02, -187500.02, -187500.02, -184996.86, -185603.41, -187500.02, -187500.02, 0.00, 0.00, 0.00
111, -187500.02, -187500.02, -187500.02, -187500.02, -184830.55, -185840.64, -187500.02, -187500.02, 0.00, 0.00, 0.00
112, -187500.02, -187500.02, -187500.02, -187500.02, -185072.50, -185292.47, -187500.02, -187500.02, 0.00, 0.00, 0.00
113, -187500.02, -187500.02, -187500.02, -187500.02, -185226.75, -185061.11, -187500.02, -187500.02, 0.00, 0.00, 0.00
114, -187500.02, -187500.02, -187500.02, -187500.02, -185048.23, -185488.11, -187500.02, -187500.02, 0.00, 0.00, 0.00
115, -187500.02, -187500.02, -187500.02, -187500.02, -184826.39, -185875.94, -187500.02, -187500.02, 0.02, 0.90, 0.40
116, -187500.02, -187500.02, -187500.02, -187500.02, -185030.23, -185391.08, -187500.02, -187500.02, 0.00, 0.00, 0.00
117, -187500.02, -187500.02, -187500.02, -187500.02, -185228.47, -185049.30, -187500.02, -187500.02, 0.00, 0.00, 0.00
118, -187500.02, -187500.02, -187500.02, -187500.02, -185096.94, -185383.38, -187500.02, -187500.02, 0.00, 0.00, 0.00
119, -187500.02, -187500.02, -187500.02, -187500.02, -184832.25, -185877.34, -187500.02, -187500.02, 0.00, 0.00, 0.00
120, -187500.02, -187500.02, -187500.02, -187500.02, -184979.50, -185495.05, -187500.02, -187500.02, 0.00, 0.00, 0.00
121, -187500.02, -187500.02, -187500.02, -187500.02, -185218.75, -185052.34, -187500.02, -187500.02, 0.00, 0.00, 0.00
122, -187500.02, -187500.02, -187500.02, -187500.02, -185140.98, -185276.08, -187500.02, -187500.02, 0.00, 0.00, 0.00
123, -187500.02, -187500.02, -187500.02, -187500.02, -184849.28, -185838.81, -187500.02, -187500.02, 0.00, 0.00, 0.00
124, -187500.02, -187500.02, -187500.02, -187500.02, -184919.78, -185595.94, -187500.02, -187500.02, 0.00, 0.00, 0.00
125, -187500.02, -187500.02, -187500.02, -187500.02, -185188.80, -185076.28, -187500.02, -187500.02, 0.02, 0.90, 0.40
126, -187500.02, -187500.02, -187500.02, -187500.02, -185170.38, -185180.44, -187500.02, -187500.02, 0.00, 0.00, 0.00
127, -187500.02, -187500.02, -187500.02, -187500.02, -184881.11, -185770.19, -187500.02, -187500.02, 0.00, 0.00, 0.00
128, -187500.02, -187500.02, -187500.02, -187500.02, -184871.31, -185698.38, -187500.02, -187500.02, 0.00, 0.00, 0.00
129, -187500.02, -187500.02, -187500.02, -187500.02, -185157.63, -185127.72, -187500.02, -187500.02, 0.00, 0.00, 0.00
130, -187500.02, -187500.02, -187500.02, -187500.02, -185200.67, -185113.81, -187500.02, -187500.02, 0.00, 0.00, 0.00
131, -187500.02, -187500.02, -187500.02, -187500.02, -184926.95, -185679.73, -187500.02, -187500.02, 0.00, 0.00, 0.00
132, -187500.02, -187500.02, -187500.02, -187500.02, -184833.92, -185788.05, -187500.02, -187500.02, 0.00, 0.00, 0.00
133, -187500.02, -187500.02, -187500.02, -187500.02, -185115.00, -185204.47, -187500.02, -187500.02, 0.00, 0.00, 0.00
134, -187500.02, -187500.02, -187500.02, -187500.02, -185215.06, -185062.61, -187500.02, -187500.02, 0.00, 0.00, 0.00
135, -187500.02, -187500.02, -187500.02, -187500.02, -184974.61, -185573.83, -187500.02, -187500.02, 0.02, 0.90, 0.40
136, -187500.02, -187500.02, -187500.02, -187500.02, -184805.77, -185843.53, -187500.02, -187500.02, 0.00, 0.00, 0.00
137, -187500.02, -187500.02, -187500.02, -187500.02, -185063.23, -185295.00, -187500.02, -187500.02, 0.00, 0.00, 0.00
138, -187500.02, -187500.02, -187500.02, -187500.02, -185224.92, -185033.44, -187500.02, -187500.02, 0.00, 0.00, 0.00
139, -187500.02, -187500.02, -187500.02, -187500.02, -185034.27, -185453.44, -187500.02, -187500.02, 0.00, 0.00, 0.00
140, -187500.02, -187500.02, -187500.02, -187500.02, -184799.67, -185867.89, -187500.02, -187500.02, 0.00, 0.00, 0.00
141, -187500.02, -187500.02, -187500.02, -187500.02, -185012.42, -185394.61, -187500.02, -187500.02, 0.00, 0.00, 0.00
142, -187500.02, -187500.02, -187500.02, -187500.02, -185222.44, -185024.41, -187500.02, -187500.02, 0.00, 0.00, 0.00
143, -187500.02, -187500.02, -187500.02, -187500.02, -185089.78, -185339.11, -187500.02, -187500.02, 0.00, 0.00, 0.00
144, -187500.02, -187500.02, -187500.02, -187500.02, -184815.22, -185861.14, -187500.02, -187500.02, 0.00, 0.00, 0.00
145, -187500.02, -187500.02, -187500.02, -187500.02, -184956.19, -185510.58, -187500.02, -187500.02, 0.02, 0.90, 0.39
146, -187500.02, -187500.02, -187500.02, -187500.02, -185207.27, -185039.45, -187500.02, -187500.02, 0.00, 0.00, 0.00
147, -187500.02, -187500.02, -187500.02, -187500.02, -185134.94, -185237.19, -187500.02, -187500.02, 0.00, 0.00, 0.00
148, -187500.02, -187500.02, -187500.02, -187500.02, -184841.59, -185815.39, -187500.02, -187500.02, 0.00, 0.00, 0.00
149, -187500.02, -187500.02, -187500.02, -187500.02, -184903.41, -185616.95, -187500.02, -187500.02, 0.00, 0.00, 0.00
150, -187500.02, -187500.02, -187500.02, -187500.02, -185176.80, -185072.55, -187500.02, -187500.02, 0.00, 0.00, 0.00
151, -187500.02, -187500.02, -187500.02, -187500.02, -185169.69, -185141.95, -187500.02, -187500.02, 0.00, 0.00, 0.00
152, -187500.02, -187500.02, -187500.02, -187500.02, -184879.86, -185732.39, -187500.02, -187500.02, 0.00, 0.00, 0.00
153, -187500.02, -187500.02, -187500.02, -187500.02, -184857.23, -185710.73, -187500.02, -187500.02, 0.00, 0.00, 0.00
154, -187500.02, -187500.02, -187500.02, -187500.02, -185148.67, -185129.97, -187500.02, -187500.02, 0.00, 0.00, 0.00
155, -187500.02, -187500.02, -187500.02, -187500.02, -185203.36, -185080.23, -187500.02, -187500.02, 0.02, 0.91, 0.40
156, -187500.02, -187500.02, -187500.02, -187500.02, -184936.92, -185639.41, -187500.02, -187500.02, 0.00, 0.00, 0.00
157, -187500.02, -187500.02, -187500.02, -187500.02, -184823.58, -185793.66, -187500.02, -187500.02, 0.00, 0.00, 0.00
158, -187500.02, -187500.02, -187500.02, -187500.02, -185103.86, -185207.44, -187500.02, -187500.02, 0.00, 0.00, 0.00
159, -187500.02, -187500.02, -187500.02, -187500.02, -185218.89, -185032.23, -187500.02, -187500.02, 0.00, 0.00, 0.00
160, -187500.02, -187500.02, -187500.02, -187500.02, -184988.17, -185519.09, -187500.02, -187500.02, 0.00, 0.00, 0.00
161, -187500.02, -187500.02, -187500.02, -187500.02, -184802.97, -185840.91, -187500.02, -187500.02, 0.00, 0.00, 0.00
162, -187500.02, -187500.02, -187500.02, -187500.02, -185055.39, -185300.56, -187500.02, -187500.02, 0.00, 0.00, 0.00
163, -187500.02, -187500.02, -187500.02, -187500.02, -185224.91, -185007.38, -187500.02, -187500.02, 0.00, 0.00, 0.00
164, -187500.02, -187500.02, -187500.02, -187500.02, -185048.47, -185400.81, -187500.02, -187500.02, 0.00, 0.00, 0.00
165, -187500.02, -187500.02, -187500.02, -187500.02, -184800.80, -185854.56, -187500.02, -187500.02, 0.03, 0.91, 0.39
166, -187500.02, -187500.02, -187500.02, -187500.02, -184999.13, -185403.16, -187500.02, -187500.02, 0.00, 0.00, 0.00
167, -187500.02, -187500.02, -187500.02, -187500.02, -185218.91, -185003.45, -187500.02, -187500.02, 0.00, 0.00, 0.00
168, -187500.02, -187500.02, -187500.02, -187500.02, -185101.19, -185284.25, -187500.02, -187500.02, 0.00, 0.00, 0.00
169, -187500.02, -187500.02, -187500.02, -187500.02, -184816.73, -185832.08, -187500.02, -187500.02, 0.00, 0.00, 0.00
170, -187500.02, -187500.02, -187500.02, -187500.02, -184939.27, -185509.91, -187500.02, -187500.02, 0.00, 0.00, 0.00
171, -187500.02, -187500.02, -187500.02, -187500.02, -185199.44, -185015.53, -187500.02, -187500.02, 0.00, 0.00, 0.00
172, -187500.02, -187500.02, -187500.02, -187500.02, -185149.11, -185180.36, -187500.02, -187500.02, 0.00, 0.00, 0.00
173, -187500.02, -187500.02, -187500.02, -187500.02, -184853.77, -185774.53, -187500.02, -187500.02, 0.00, 0.00, 0.00
174, -187500.02, -187500.02, -187500.02, -187500.02, -184895.02, -185622.73, -187500.02, -187500.02, 0.00, 0.00, 0.00
175, -187500.02, -187500.02, -187500.02, -187500.02, -185177.64, -185065.52, -187500.02, -187500.02, 0.02, 0.91, 0.39
176, -187500.02, -187500.02, -187500.02, -187500.02, -185185.41, -185104.47, -187500.02, -187500.02, 0.00, 0.00, 0.00
177, -187500.02, -187500.02, -187500.02, -187500.02, -184896.38, -185690.42, -187500.02, -187500.02, 0.00, 0.00, 0.00
178, -187500.02, -187500.02, -187500.02, -187500.02, -184847.95, -185718.63, -187500.02, -187500.02, 0.00, 0.00, 0.00
179, -187500.02, -187500.02, -187500.02, -187500.02, -185141.75, -185130.34, -187500.02, -187500.02, 0.00, 0.00, 0.00
180, -187500.02, -187500.02, -187500.02, -187500.02, -185212.98, -185045.33, -187500.02, -187500.02, 0.00, 0.00, 0.00
181, -187500.02, -187500.02, -187500.02, -187500.02, -184951.42, -185587.52, -187500.02, -187500.02, 0.00, 0.00, 0.00
182, -187500.02, -187500.02, -187500.02, -187500.02, -184820.73, -185789.27, -187500.02, -187500.02, 0.00, 0.00, 0.00
183, -187500.02, -187500.02, -187500.02, -187500.02, -185098.91, -185209.67, -187500.02, -187500.02, 0.00, 0.00, 0.00
184, -187500.02, -187500.02, -187500.02, -187500.02, -185226.95, -184999.03, -187500.02, -187500.02, 0.00, 0.00, 0.00
185, -187500.02, -187500.02, -187500.02, -187500.02, -185010.64, -185465.73, -187500.02, -187500.02, 0.02, 0.91, 0.40
186, -187500.02, -187500.02, -187500.02, -187500.02, -184808.33, -185832.98, -187500.02, -187500.02, 0.00, 0.00, 0.00
187, -187500.02, -187500.02, -187500.02, -187500.02, -185047.34, -185308.38, -187500.02, -187500.02, 0.00, 0.00, 0.00
188, -187500.02, -187500.02, -187500.02, -187500.02, -185227.69, -184982.73, -187500.02, -187500.02, 0.00, 0.00, 0.00
189, -187500.02, -187500.02, -187500.02, -187500.02, -185066.81, -185353.16, -187500.02, -187500.02, 0.00, 0.00, 0.00
190, -187500.02, -187500.02, -187500.02, -187500.02, -184806.52, -185837.89, -187500.02, -187500.02, 0.00, 0.00, 0.00
191, -187500.02, -187500.02, -187500.02, -187500.02, -184984.38, -185429.08, -187500.02, -187500.02, 0.00, 0.00, 0.00
192, -187500.02, -187500.02, -187500.02, -187500.02, -185221.34, -184993.77, -187500.02, -187500.02, 0.00, 0.00, 0.00
193, -187500.02, -187500.02, -187500.02, -187500.02, -185116.16, -185256.89, -187500.02, -187500.02, 0.00, 0.00, 0.00
194, -187500.02, -187500.02, -187500.02, -187500.02, -184830.70, -185812.86, -187500.02, -187500.02, 0.02, 0.90, 0.40
195, -187500.02, -187500.02, -187500.02, -187500.02, -184932.78, -185541.28, -187500.02, -187500.02, 0.00, 0.00, 0.00
196, -187500.02, -187500.02, -187500.02, -187500.02, -185207.80, -185021.25, -187500.02, -187500.02, 0.00, 0.00, 0.00
197, -187500.02, -187500.02, -187500.02, -187500.02, -185170.03, -185147.56, -187500.02, -187500.02, 0.00, 0.00, 0.00
198, -187500.02, -187500.02, -187500.02, -187500.02, -184871.31, -185741.77, -187500.02, -187500.02, 0.00, 0.00, 0.00
199, -187500.02, -187500.02, -187500.02, -187500.02, -184889.28, -185639.33, -187500.02, -187500.02, 0.00, 0.00, 0.00
200, -187500.02, -187500.02, -187500.02, -187500.02, -185178.52, -185066.20, -187500.02, -187500.02, 0.00, 0.00, 0.00
201, -187500.02, -187500.02, -187500.02, -187500.02, -185207.23, -185072.03, -187500.02, -187500.02, 0.00, 0.00, 0.00
202, -187500.02, -187500.02, -187500.02, -187500.02, -184926.30, -185654.23, -187500.02, -187500.02, 0.00, 0.00, 0.00
203, -187500.02, -187500.02, -187500.02, -187500.02, -184849.69, -185731.56, -187500.02, -187500.02, 0.00, 0.00, 0.00
204, -187500.02, -187500.02, -187500.02, -187500.02, -185135.11, -185137.13, -187500.02, -187500.02, 0.02, 0.91, 0.40
205, -187500.02, -187500.02, -187500.02, -187500.02, -185220.89, -185017.44, -187500.02, -187500.02, 0.00, 0.00, 0.00
206, -187500.02, -187500.02, -187500.02, -187500.02, -184972.39, -185545.78, -187500.02, -187500.02, 0.00, 0.00, 0.00
207, -187500.02, -187500.02, -187500.02, -187500.02, -184815.59, -185796.34, -187500.02, -187500.02, 0.00, 0.00, 0.00
208, -187500.02, -187500.02, -187500.02, -187500.02, -185075.34, -185229.59, -187500.02, -187500.02, 0.00, 0.00, 0.00
209, -187500.02, -187500.02, -187500.02, -187500.02, -185220.61, -184980.50, -187500.02, -187500.02, 0.00, 0.00, 0.00
210, -187500.02, -187500.02, -187500.02, -187500.02, -185022.45, -185429.13, -187500.02, -187500.02, 0.00, 0.00, 0.00
211, -187500.02, -187500.02, -187500.02, -187500.02, -184802.14, -185824.59, -187500.02, -187500.02, 0.00, 0.00, 0.00
212, -187500.02, -187500.02, -187500.02, -187500.02, -185019.05, -185331.89, -187500.02, -187500.02, 0.00, 0.00, 0.00
213, -187500.02, -187500.02, -187500.02, -187500.02, -185220.94, -184971.56, -187500.02, -187500.02, 0.00, 0.00, 0.00
214, -187500.02, -187500.02, -187500.02, -187500.02, -185080.63, -185302.02, -187500.02, -187500.02, 0.02, 0.91, 0.40
215, -187500.02, -187500.02, -187500.02, -187500.02, -184811.45, -185817.06, -187500.02, -187500.02, 0.00, 0.00, 0.00
216, -187500.02, -187500.02, -187500.02, -187500.02, -184965.53, -185438.14, -187500.02, -187500.02, 0.00, 0.00, 0.00
217, -187500.02, -187500.02, -187500.02, -187500.02, -185208.20, -184981.94, -187500.02, -187500.02, 0.00, 0.00, 0.00
218, -187500.02, -187500.02, -187500.02, -187500.02, -185130.16, -185195.64, -187500.02, -187500.02, 0.00, 0.00, 0.00
219, -187500.02, -187500.02, -187500.02, -187500.02, -184839.95, -185776.00, -187500.02, -187500.02, 0.00, 0.00, 0.00
220, -187500.02, -187500.02, -187500.02, -187500.02, -184914.17, -185557.61, -187500.02, -187500.02, 0.00, 0.00, 0.00
221, -187500.02, -187500.02, -187500.02, -187500.02, -185186.36, -185017.08, -187500.02, -187500.02, 0.00, 0.00, 0.00
222, -187500.02, -187500.02, -187500.02, -187500.02, -185172.27, -185106.72, -187500.02, -187500.02, 0.00, 0.00, 0.00
223, -187500.02, -187500.02, -187500.02, -187500.02, -184883.66, -185703.34, -187500.02, -187500.02, 0.00, 0.00, 0.00
224, -187500.02, -187500.02, -187500.02, -187500.02, -184866.22, -185652.38, -187500.02, -187500.02, 0.03, 0.91, 0.40
225, -187500.02, -187500.02, -187500.02, -187500.02, -185149.16, -185068.58, -187500.02, -187500.02, 0.00, 0.00, 0.00
226, -187500.02, -187500.02, -187500.02, -187500.02, -185198.95, -185035.16, -187500.02, -187500.02, 0.00, 0.00, 0.00
227, -187500.02, -187500.02, -187500.02, -187500.02, -184935.75, -185603.73, -187500.02, -187500.02, 0.00, 0.00, 0.00
228, -187500.02, -187500.02, -187500.02, -187500.02, -184833.86, -185742.56, -187500.02, -187500.02, 0.00, 0.00, 0.00
229, -187500.02, -187500.02, -187500.02, -187500.02, -185107.58, -185155.91, -187500.02, -187500.02, 0.00, 0.00, 0.00
230, -187500.02, -187500.02, -187500.02, -187500.02, -185213.86, -184991.97, -187500.02, -187500.02, 0.00, 0.00, 0.00
231, -187500.02, -187500.02, -187500.02, -187500.02, -184990.14, -185492.30, -187500.02, -187500.02, 0.00, 0.00, 0.00
232, -187500.02, -187500.02, -187500.02, -187500.02, -184814.31, -185796.05, -187500.02, -187500.02, 0.00, 0.00, 0.00
233, -187500.02, -187500.02, -187500.02, -187500.02, -185054.38, -185254.58, -187500.02, -187500.02, 0.00, 0.00, 0.00
234, -187500.02, -187500.02, -187500.02, -187500.02, -185220.83, -184966.69, -187500.02, -187500.02, 0.02, 0.91, 0.40
235, -187500.02, -187500.02, -187500.02, -187500.02, -185046.70, -185370.81, -187500.02, -187500.02, 0.00, 0.00, 0.00
236, -187500.02, -187500.02, -187500.02, -187500.02, -184806.63, -185805.78, -187500.02, -187500.02, 0.00, 0.00, 0.00
237, -187500.02, -187500.02, -187500.02, -187500.02, -184991.50, -185348.77, -187500.02, -187500.02, 0.00, 0.00, 0.00
238, -187500.02, -187500.02, -187500.02, -187500.02, -185207.16, -184957.13, -187500.02, -187500.02, 0.00, 0.00, 0.00
239, -187500.02, -187500.02, -187500.02, -187500.02, -185098.64, -185249.17, -187500.02, -187500.02, 0.00, 0.00, 0.00
240, -187500.02, -187500.02, -187500.02, -187500.02, -184825.05, -185786.36, -187500.02, -187500.02, 0.00, 0.00, 0.00
241, -187500.02, -187500.02, -187500.02, -187500.02, -184937.92, -185460.42, -187500.02, -187500.02, 0.00, 0.00, 0.00
242, -187500.02, -187500.02, -187500.02, -187500.02, -185188.75, -184974.78, -187500.02, -187500.02, 0.00, 0.00, 0.00
243, -187500.02, -187500.02, -187500.02, -187500.02, -185142.00, -185144.36, -187500.02, -187500.02, 0.00, 0.00, 0.00
244, -187500.02, -187500.02, -187500.02, -187500.02, -184856.83, -185729.91, -187500.02, -187500.02, 0.02, 0.92, 0.39
245, -187500.02, -187500.02, -187500.02, -187500.02, -184886.83, -185571.75, -187500.02, -187500.02, 0.00, 0.00, 0.00
246, -187500.02, -187500.02, -187500.02, -187500.02, -185161.55, -185020.31, -187500.02, -187500.02, 0.00, 0.00, 0.00
247, -187500.02, -187500.02, -187500.02, -187500.02, -185178.98, -185068.33, -187500.02, -187500.02, 0.00, 0.00, 0.00
248, -187500.02, -187500.02, -187500.02, -187500.02, -184902.28, -185651.55, -187500.02, -187500.02, 0.00, 0.00, 0.00
249, -187500.02, -187500.02, -187500.02, -187500.02, -184844.09, -185668.63, -187500.02, -187500.02, 0.00, 0.00, 0.00
250, -187500.02, -187500.02, -187500.02, -187500.02, -185117.98, -185086.45, -187500.02, -187500.02, 0.00, 0.00, 0.00
251, -187500.02, -187500.02, -187500.02, -187500.02, -185195.69, -185003.61, -187500.02, -187500.02, 0.00, 0.00, 0.00
252, -187500.02, -187500.02, -187500.02, -187500.02, -184949.03, -185544.66, -187500.02, -187500.02, 0.00, 0.00, 0.00
253, -187500.02, -187500.02, -187500.02, -187500.02, -184812.67, -185735.28, -187500.02, -187500.02, 0.00, 0.00, 0.00
254, -187500.02, -187500.02, -187500.02, -187500.02, -185072.53, -185162.20, -187500.02, -187500.02, 0.02, 0.91, 0.39
255, -187500.02, -187500.02, -187500.02, -187500.02, -185201.56, -184958.59, -187500.02, -187500.02, 0.00, 0.00, 0.00
0, -187500.02, -187500.02, -187500.02, -187500.02, -185000.89, -185431.50, -187500.02, -187500.02, 0.00, 0.00, 0.00
1, -187500.02, -187500.02, -187500.02, -187500.02, -184803.36, -185786.38, -187500.02, -187500.02, 0.00, 0.00, 0.00
2, -187500.02, -187500.02, -187500.02, -187500.02, -185025.81, -185270.97, -187500.02, -187500.02, 0.00, 0.00, 0.00
3, -187500.02, -187500.02, -187500.02, -187500.02, -185209.31, -184952.91, -187500.02, -187500.02, 0.00, 0.00, 0.00
4, -187500.02, -187500.02, -187500.02, -187500.02, -185055.39, -185325.02, -187500.02, -187500.02, 0.00, 0.00, 0.00
5, -187500.02, -187500.02, -187500.02, -187500.02, -184803.13, -185795.86, -187500.02, -187500.02, 0.00, 0.00, 0.00
6, -187500.02, -187500.02, -187500.02, -187500.02, -184968.13, -185377.61, -187500.02, -187500.02, 0.00, 0.00, 0.00
7, -187500.02, -187500.02, -187500.02, -187500.02, -185192.41, -184953.61, -187500.02, -187500.02, 0.00, 0.00, 0.00
8, -187500.02, -187500.02, -187500.02, -187500.02, -185093.30, -185205.70, -187500.02, -187500.02, 0.02, 0.91, 0.39
9, -187500.02, -187500.02, -187500.02, -187500.02, -184809.31, -185762.13, -187500.02, -187500.02, 0.00, 0.00, 0.00
10, -187500.02, -187500.02, -187500.02, -187500.02, -184902.34, -185480.05, -187500.02, -187500.02, 0.00, 0.00, 0.00
11, -187500.02, -187500.02, -187500.02, -187500.02, -185159.94, -184971.63, -187500.02, -187500.02, 0.00, 0.00, 0.00
12, -187500.02, -187500.02, -187500.02, -187500.02, -185128.73, -185103.38, -187500.02, -187500.02, 0.00, 0.00, 0.00
13, -187500.02, -187500.02, -187500.02, -187500.02, -184842.02, -185698.44, -187500.02, -187500.02, 0.00, 0.00, 0.00
14, -187500.02, -187500.02, -187500.02, -187500.02, -184848.16, -185588.81, -187500.02, -187500.02, 0.00, 0.00, 0.00
15, -187500.02, -187500.02, -187500.02, -187500.02, -185123.59, -185018.28, -187500.02, -187500.02, 0.00, 0.00, 0.00
16, -187500.02, -187500.02, -187500.02, -187500.02, -185151.16, -185028.25, -187500.02, -187500.02, 0.00, 0.00, 0.00
17, -187500.02, -187500.02, -187500.02, -187500.02, -184881.02, -185610.13, -187500.02, -187500.02, 0.02, 0.91, 0.40
18, -187500.02, -187500.02, -187500.02, -187500.02, -184805.25, -185685.86, -187500.02, -187500.02, 0.00, 0.00, 0.00
19, -187500.02, -187500.02, -187500.02, -187500.02, -185083.61, -185103.06, -187500.02, -187500.02, 0.00, 0.00, 0.00
20, -187500.02, -187500.02, -187500.02, -187500.02, -185174.27, -184982.31, -187500.02, -187500.02, 0.00, 0.00, 0.00
21, -187500.02, -187500.02, -187500.02, -187500.02, -184931.73, -185509.59, -187500.02, -187500.02, 0.00, 0.00, 0.00
22, -187500.02, -187500.02, -187500.02, -187500.02, -184781.33, -185745.16, -187500.02, -187500.02, 0.00, 0.00, 0.00
23, -187500.02, -187500.02, -187500.02, -187500.02, -185039.09, -185172.11, -187500.02, -187500.02, 0.00, 0.00, 0.00
24, -187500.02, -187500.02, -187500.02, -187500.02, -185181.41, -184938.14, -187500.02, -187500.02, 0.00, 0.00, 0.00
25, -187500.02, -187500.02, -187500.02, -187500.02, -184990.45, -185389.91, -187500.02, -187500.02, 0.00, 0.00, 0.00
26, -187500.02, -187500.02, -187500.02, -187500.02, -184776.48, -185787.16, -187500.02, -187500.02, 0.00, 0.00, 0.00
27, -187500.02, -187500.02, -187500.02, -187500.02, -184990.03, -185278.52, -187500.02, -187500.02, 0.02, 0.91, 0.40
28, -187500.02, -187500.02, -187500.02, -187500.02, -185181.02, -184928.84, -187500.02, -187500.02, 0.00, 0.00, 0.00
29, -187500.02, -187500.02, -187500.02, -187500.02, -185039.33, -185285.83, -187500.02, -187500.02, 0.00, 0.00, 0.00
30, -187500.02, -187500.02, -187500.02, -187500.02, -184777.53, -185790.33, -187500.02, -187500.02, 0.00, 0.00, 0.00
31, -187500.02, -187500.02, -187500.02, -187500.02, -184930.09, -185405.59, -187500.02, -187500.02, 0.00, 0.00, 0.00
32, -187500.02, -187500.02, -187500.02, -187500.02, -185166.63, -184946.03, -187500.02, -187500.02, 0.00, 0.00, 0.00
33, -187500.02, -187500.02, -187500.02, -187500.02, -185079.39, -185182.67, -187500.02, -187500.02, 0.00, 0.00, 0.00
34, -187500.02, -187500.02, -187500.02, -187500.02, -184796.14, -185757.08, -187500.02, -187500.02, 0.00, 0.00, 0.00
35, -187500.02, -187500.02, -187500.02, -187500.02, -184878.56, -185512.31, -187500.02, -187500.02, 0.00, 0.00, 0.00
36, -187500.02, -187500.02, -187500.02, -187500.02, -185146.95, -184976.02, -187500.02, -187500.02, 0.00, 0.00, 0.00
37, -187500.02, -187500.02, -187500.02, -187500.02, -185119.02, -185078.98, -187500.02, -187500.02, 0.02, 0.92, 0.41
38, -187500.02, -187500.02, -187500.02, -187500.02, -184833.88, -185684.34, -187500.02, -187500.02, 0.00, 0.00, 0.00
39, -187500.02, -187500.02, -187500.02, -187500.02, -184827.48, -185619.67, -187500.02, -187500.02, 0.00, 0.00, 0.00
40, -187500.02, -187500.02, -187500.02, -187500.02, -185102.72, -185029.50, -187500.02, -187500.02, 0.00, 0.00, 0.00
41, -187500.02, -187500.02, -187500.02, -187500.02, -185150.33, -185000.55, -187500.02, -187500.02, 0.00, 0.00, 0.00
42, -187500.02, -187500.02, -187500.02, -187500.02, -184891.75, -185569.00, -187500.02, -187500.02, 0.00, 0.00, 0.00
43, -187500.02, -187500.02, -187500.02, -187500.02, -184781.58, -185693.91, -187500.02, -187500.02, 0.00, 0.00, 0.00
44, -187500.02, -187500.02, -187500.02, -187500.02, -185041.80, -185110.59, -187500.02, -187500.02, 0.00, 0.00, 0.00
45, -187500.02, -187500.02, -187500.02, -187500.02, -185152.50, -184952.31, -187500.02, -187500.02, 0.00, 0.00, 0.00
46, -187500.02, -187500.02, -187500.02, -187500.02, -184940.23, -185453.88, -187500.02, -187500.02, 0.00, 0.00, 0.00
47, -187500.02, -187500.02, -187500.02, -187500.02, -184761.55, -185751.17, -187500.02, -187500.02, 0.02, 0.91, 0.41
48, -187500.02, -187500.02, -187500.02, -187500.02, -184985.42, -185210.34, -187500.02, -187500.02, 0.00, 0.00, 0.00
49, -187500.02, -187500.02, -187500.02, -187500.02, -185155.16, -184933.23, -187500.02, -187500.02, 0.00, 0.00, 0.00
50, -187500.02, -187500.02, -187500.02, -187500.02, -184994.16, -185343.83, -187500.02, -187500.02, 0.00, 0.00, 0.00
51, -187500.02, -187500.02, -187500.02, -187500.02, -184760.75, -185775.67, -187500.02, -187500.02, 0.00, 0.00, 0.00
52, -187500.02, -187500.02, -187500.02, -187500.02, -184928.41, -185318.63, -187500.02, -187500.02, 0.00, 0.00, 0.00
53, -187500.02, -187500.02, -187500.02, -187500.02, -185138.00, -184923.95, -187500.02, -187500.02, 0.00, 0.00, 0.00
54, -187500.02, -187500.02, -187500.02, -187500.02, -185045.70, -185213.00, -187500.02, -187500.02, 0.00, 0.00, 0.00
55, -187500.02, -187500.02, -187500.02, -187500.02, -184780.03, -185747.42, -187500.02, -187500.02, 0.00, 0.00, 0.00
56, -187500.02, -187500.02, -187500.02, -187500.02, -184858.63, -185432.95, -187500.02, -187500.02, 0.00, 0.00, 0.00
57, -187500.02, -187500.02, -187500.02, -187500.02, -185100.88, -184949.70, -187500.02, -187500.02, 0.03, 0.91, 0.40
58, -187500.02, -187500.02, -187500.02, -187500.02, -185074.03, -185115.63, -187500.02, -187500.02, 0.00, 0.00, 0.00
59, -187500.02, -187500.02, -187500.02, -187500.02, -184802.30, -185695.20, -187500.02, -187500.02, 0.00, 0.00, 0.00
60, -187500.02, -187500.02, -187500.02, -187500.02, -184797.20, -185541.31, -187500.02, -187500.02, 0.00, 0.00, 0.00
61, -187500.02, -187500.02, -187500.02, -187500.02, -185052.72, -184992.84, -187500.02, -187500.02, 0.00, 0.00, 0.00
62, -187500.02, -187500.02, -187500.02, -187500.02, -185094.92, -185027.88, -187500.02, -187500.02, 0.00, 0.00, 0.00
63, -187500.02, -187500.02, -187500.02, -187500.02, -184847.92, -185605.75, -187500.02, -187500.02, 0.00, 0.00, 0.00
64, -187500.02, -187500.02, -187500.02, -187500.02, -184761.95, -185633.16, -187500.02, -187500.02, 0.00, 0.00, 0.00
65, -187500.02, -187500.02, -187500.02, -187500.02, -185006.86, -185057.58, -187500.02, -187500.02, 0.00, 0.00, 0.00
66, -187500.02, -187500.02, -187500.02, -187500.02, -185110.39, -184963.09, -187500.02, -187500.02, 0.00, 0.00, 0.00
67, -187500.02, -187500.02, -187500.02, -187500.02, -184905.84, -185494.33, -187500.02, -187500.02, 0.02, 0.91, 0.40
68, -187500.02, -187500.02, -187500.02, -187500.02, -184743.69, -185700.08, -187500.02, -187500.02, 0.00, 0.00, 0.00
69, -187500.02, -187500.02, -187500.02, -187500.02, -184953.39, -185137.53, -187500.02, -187500.02, 0.00, 0.00, 0.00
70, -187500.02, -187500.02, -187500.02, -187500.02, -185103.89, -184926.64, -187500.02, -187500.02, 0.00, 0.00, 0.00
71, -187500.02, -187500.02, -187500.02, -187500.02, -184951.33, -185377.45, -187500.02, -187500.02, 0.00, 0.00, 0.00
72, -187500.02, -187500.02, -187500.02, -187500.02, -184734.86, -185741.73, -187500.02, -187500.02, 0.00, 0.00, 0.00
73, -187500.02, -187500.02, -187500.02, -187500.02, -184898.11, -185251.50, -187500.02, -187500.02, 0.00, 0.00, 0.00
74, -187500.02, -187500.02, -187500.02, -187500.02, -185092.63, -184925.23, -187500.02, -187500.02, 0.00, 0.00, 0.00
75, -187500.02, -187500.02, -187500.02, -187500.02, -184988.08, -185286.55, -187500.02, -187500.02, 0.00, 0.00, 0.00
76, -187500.02, -187500.02, -187500.02, -187500.02, -184741.28, -185756.53, -187500.02, -187500.02, 0.00, 0.00, 0.00
77, -187500.02, -187500.02, -187500.02, -187500.02, -184840.25, -185367.61, -187500.02, -187500.02, 0.02, 0.91, 0.40
78, -187500.02, -187500.02, -187500.02, -187500.02, -185071.19, -184928.77, -187500.02, -187500.02, 0.00, 0.00, 0.00
79, -187500.02, -187500.02, -187500.02, -187500.02, -185019.28, -185175.33, -187500.02, -187500.02, 0.00, 0.00, 0.00
80, -187500.02, -187500.02, -187500.02, -187500.02, -184756.39, -185730.45, -187500.02, -187500.02, 0.00, 0.00, 0.00
81, -187500.02, -187500.02, -187500.02, -187500.02, -184802.20, -185459.95, -187500.02, -187500.02, 0.00, 0.00, 0.00
82, -187500.02, -187500.02, -187500.02, -187500.02, -185047.56, -184947.36, -187500.02, -187500.02, 0.00, 0.00, 0.00
83, -187500.02, -187500.02, -187500.02, -187500.02, -185043.64, -185067.83, -187500.02, -187500.02, 0.00, 0.00, 0.00
84, -187500.02, -187500.02, -187500.02, -187500.02, -184775.09, -185662.84, -187500.02, -187500.02, 0.00, 0.00, 0.00
85, -187500.02, -187500.02, -187500.02, -187500.02, -184758.31, -185552.75, -187500.02, -187500.02, 0.00, 0.00, 0.00
86, -187500.02, -187500.02, -187500.02, -187500.02, -185021.36, -184984.73, -187500.02, -187500.02, 0.00, 0.00, 0.00
87, -187500.02, -187500.02, -187500.02, -187500.02, -185067.77, -185001.69, -187500.02, -187500.02, 0.02, 0.91, 0.40
88, -187500.02, -187500.02, -187500.02, -187500.02, -184809.89, -185591.41, -187500.02, -187500.02, 0.00, 0.00, 0.00
89, -187500.02, -187500.02, -187500.02, -187500.02, -184730.14, -185653.14, -187500.02, -187500.02, 0.00, 0.00, 0.00
90, -187500.02, -187500.02, -187500.02, -187500.02, -184999.81, -185054.98, -187500.02, -187500.02, 0.00, 0.00, 0.00
91, -187500.02, -187500.02, -187500.02, -187500.02, -185088.67, -184950.20, -187500.02, -187500.02, 0.00, 0.00, 0.00
92, -187500.02, -187500.02, -187500.02, -187500.02, -184847.47, -185499.89, -187500.02, -187500.02, 0.00, 0.00, 0.00
93, -187500.02, -187500.02, -187500.02, -187500.02, -184706.78, -185723.05, -187500.02, -187500.02, 0.00, 0.00, 0.00
94, -187500.02, -187500.02, -187500.02, -187500.02, -184967.92, -185140.97, -187500.02, -187500.02, 0.00, 0.00, 0.00
95, -187500.02, -187500.02, -187500.02, -187500.02, -185106.13, -184913.27, -187500.02, -187500.02, 0.00, 0.00, 0.00
96, -187500.02, -187500.02, -187500.02, -187500.02, -184902.00, -185387.31, -187500.02, -187500.02, 0.00, 0.00, 0.00
97, -187500.02, -187500.02, -187500.02, -187500.02, -184701.00, -185763.05, -187500.02, -187500.02, 0.02, 0.91, 0.40
98, -187500.02, -187500.02, -187500.02, -187500.02, -184926.34, -185234.47, -187500.02, -187500.02, 0.00, 0.00, 0.00
99, -187500.02, -187500.02, -187500.02, -187500.02, -185111.67, -184894.55, -187500.02, -187500.02, 0.00, 0.00, 0.00
100, -187500.02, -187500.02, -187500.02, -187500.02, -184959.83, -185264.47, -187500.02, -187500.02, 0.00, 0.00, 0.00
101, -187500.02, -187500.02, -187500.02, -187500.02, -184701.47, -185761.92, -187500.02, -187500.02, 0.00, 0.00, 0.00
102, -187500.02, -187500.02, -187500.02, -187500.02, -184873.42, -185344.13, -187500.02, -187500.02, 0.00, 0.00, 0.00
103, -187500.02, -187500.02, -187500.02, -187500.02, -185104.20, -184899.39, -187500.02, -187500.02, 0.00, 0.00, 0.00
104, -187500.02, -187500.02, -187500.02, -187500.02, -185003.64, -185153.13, -187500.02, -187500.02, 0.00, 0.00, 0.00
105, -187500.02, -187500.02, -187500.02, -187500.02, -184718.39, -185732.53, -187500.02, -187500.02, 0.00, 0.00, 0.00
106, -187500.02, -187500.02, -187500.02, -187500.02, -184816.48, -185463.02, -187500.02, -187500.02, 0.02, 0.91, 0.40
107, -187500.02, -187500.02, -187500.02, -187500.02, -185080.47, -184928.31, -187500.02, -187500.02, 0.00, 0.00, 0.00
108, -187500.02, -187500.02, -187500.02, -187500.02, -185041.14, -185053.13, -187500.02, -187500.02, 0.00, 0.00, 0.00
109, -187500.02, -187500.02, -187500.02, -187500.02, -184745.45, -185661.78, -187500.02, -187500.02, 0.00, 0.00, 0.00
110, -187500.02, -187500.02, -187500.02, -187500.02, -184765.28, -185569.39, -187500.02, -187500.02, 0.00, 0.00, 0.00
111, -187500.02, -187500.02, -187500.02, -187500.02, -185053.50, -184982.89, -187500.02, -187500.02, 0.00, 0.00, 0.00
112, -187500.02, -187500.02, -187500.02, -187500.02, -185078.19, -184979.20, -187500.02, -187500.02, 0.00, 0.00, 0.00
113, -187500.02, -187500.02, -187500.02, -187500.02, -184798.00, -185571.48, -187500.02, -187500.02, 0.00, 0.00, 0.00
114, -187500.02, -187500.02, -187500.02, -187500.02, -184723.95, -185659.02, -187500.02, -187500.02, 0.00, 0.00, 0.00
115, -187500.02, -187500.02, -187500.02, -187500.02, -185012.56, -185051.34, -187500.02, -187500.02, 0.00, 0.00, 0.00
116, -187500.02, -187500.02, -187500.02, -187500.02, -185097.84, -184920.27, -187500.02, -187500.02, 0.02, 0.91, 0.39
117, -187500.02, -187500.02, -187500.02, -187500.02, -184849.84, -185456.08, -187500.02, -187500.02, 0.00, 0.00, 0.00
118, -187500.02, -187500.02, -187500.02, -187500.02, -184691.94, -185720.34, -187500.02, -187500.02, 0.00, 0.00, 0.00
119, -187500.02, -187500.02, -187500.02, -187500.02, -184959.92, -185141.77, -187500.02, -187500.02, 0.00, 0.00, 0.00
120, -187500.02, -187500.02, -187500.02, -187500.02, -185105.27, -184892.89, -187500.02, -187500.02, 0.00, 0.00, 0.00
121, -187500.02, -187500.02, -187500.02, -187500.02, -184904.22, -185342.11, -187500.02, -187500.02, 0.00, 0.00, 0.00
122, -187500.02, -187500.02, -187500.02, -187500.02, -184684.72, -185759.78, -187500.02, -187500.02, 0.00, 0.00, 0.00
123, -187500.02, -187500.02, -187500.02, -187500.02, -184905.20, -185265.98, -187500.02, -187500.02, 0.00, 0.00, 0.00
124, -187500.02, -187500.02, -187500.02, -187500.02, -185107.22, -184889.17, -187500.02, -187500.02, 0.00, 0.00, 0.00
125, -187500.02, -187500.02, -187500.02, -187500.02, -184960.48, -185235.67, -187500.02, -187500.02, 0.00, 0.00, 0.00
126, -187500.02, -187500.02, -187500.02, -187500.02, -184697.52, -185754.77, -187500.02, -187500.02, 0.02, 0.91, 0.40
127, -187500.02, -187500.02, -187500.02, -187500.02, -184855.64, -185375.45, -187500.02, -187500.02, 0.00, 0.00, 0.00
128, -187500.02, -187500.02, -187500.02, -187500.02, -185100.48, -184900.86, -187500.02, -187500.02, 0.00, 0.00, 0.00
129, -187500.02, -187500.02, -187500.02, -187500.02, -185016.16, -185117.03, -187500.02, -187500.02, 0.00, 0.00, 0.00
130, -187500.02, -187500.02, -187500.02, -187500.02, -184724.56, -185709.33, -187500.02, -187500.02, 0.00, 0.00, 0.00
131, -187500.02, -187500.02, -187500.02, -187500.02, -184804.03, -185483.89, -187500.02, -187500.02, 0.00, 0.00, 0.00
132, -187500.02, -187500.02, -187500.02, -187500.02, -185077.88, -184931.11, -187500.02, -187500.02, 0.00, 0.00, 0.00
133, -187500.02, -187500.02, -187500.02, -187500.02, -185057.17, -185021.52, -187500.02, -187500.02, 0.00, 0.00, 0.00
134, -187500.02, -187500.02, -187500.02, -187500.02, -184760.94, -185629.00, -187500.02, -187500.02, 0.00, 0.00, 0.00
135, -187500.02, -187500.02, -187500.02, -187500.02, -184752.39, -185588.86, -187500.02, -187500.02, 0.00, 0.00, 0.00
136, -187500.02, -187500.02, -187500.02, -187500.02, -185041.64, -184989.67, -187500.02, -187500.02, 0.02, 0.91, 0.39
137, -187500.02, -187500.02, -187500.02, -187500.02, -185081.64, -184949.81, -187500.02, -187500.02, 0.00, 0.00, 0.00
138, -187500.02, -187500.02, -187500.02, -187500.02, -184807.22, -185529.36, -187500.02, -187500.02, 0.00, 0.00, 0.00
139, -187500.02, -187500.02, -187500.02, -187500.02, -184708.31, -185671.44, -187500.02, -187500.02, 0.00, 0.00, 0.00
140, -187500.02, -187500.02, -187500.02, -187500.02, -184990.78, -185066.14, -187500.02, -187500.02, 0.00, 0.00, 0.00
141, -187500.02, -187500.02, -187500.02, -187500.02, -185095.50, -184896.23, -187500.02, -187500.02, 0.00, 0.00, 0.00
142, -187500.02, -187500.02, -187500.02, -187500.02, -184857.95, -185410.27, -187500.02, -187500.02, 0.00, 0.00, 0.00
143, -187500.02, -187500.02, -187500.02, -187500.02, -184690.05, -185723.39, -187500.02, -187500.02, 0.00, 0.00, 0.00
144, -187500.02, -187500.02, -187500.02, -187500.02, -184946.63, -185163.25, -187500.02, -187500.02, 0.00, 0.00, 0.00
145, -187500.02, -187500.02, -187500.02, -187500.02, -185108.33, -184871.83, -187500.02, -187500.02, 0.00, 0.00, 0.00
146, -187500.02, -187500.02, -187500.02, -187500.02, -184920.98, -185286.28, -187500.02, -187500.02, 0.02, 0.91, 0.41
147, -187500.02, -187500.02, -187500.02, -187500.02, -184686.06, -185740.55, -187500.02, -187500.02, 0.00, 0.00, 0.00
148, -187500.02, -187500.02, -187500.02, -187500.02, -184895.81, -185265.02, -187500.02, -187500.02, 0.00, 0.00, 0.00
149, -187500.02, -187500.02, -187500.02, -187500.02, -185110.25, -184870.17, -187500.02, -187500.02, 0.00, 0.00, 0.00
150, -187500.02, -187500.02, -187500.02, -187500.02, -184981.78, -185175.30, -187500.02, -187500.02, 0.00, 0.00, 0.00
151, -187500.02, -187500.02, -187500.02, -187500.02, -184704.02, -185728.22, -187500.02, -187500.02, 0.00, 0.00, 0.00
152, -187500.02, -187500.02, -187500.02, -187500.02, -184844.83, -185390.17, -187500.02, -187500.02, 0.00, 0.00, 0.00
153, -187500.02, -187500.02, -187500.02, -187500.02, -185097.72, -184890.63, -187500.02, -187500.02, 0.00, 0.00, 0.00
154, -187500.02, -187500.02, -187500.02, -187500.02, -185028.34, -185073.42, -187500.02, -187500.02, 0.00, 0.00, 0.00
155, -187500.02, -187500.02, -187500.02, -187500.02, -184731.39, -185677.83, -187500.02, -187500.02, 0.00, 0.00, 0.00
156, -187500.02, -187500.02, -187500.02, -187500.02, -184786.25, -185495.38, -187500.02, -187500.02, 0.02, 0.91, 0.40
157, -187500.02, -187500.02, -187500.02, -187500.02, -185068.69, -184926.97, -187500.02, -187500.02, 0.00, 0.00, 0.00
158, -187500.02, -187500.02, -187500.02, -187500.02, -185065.78, -184981.38, -187500.02, -187500.02, 0.00, 0.00, 0.00
159, -187500.02, -187500.02, -187500.02, -187500.02, -184771.97, -185588.06, -187500.02, -187500.02, 0.00, 0.00, 0.00
160, -187500.02, -187500.02, -187500.02, -187500.02, -184740.63, -185596.86, -187500.02, -187500.02, 0.00, 0.00, 0.00
161, -187500.02, -187500.02, -187500.02, -187500.02, -185033.88, -184988.58, -187500.02, -187500.02, 0.00, 0.00, 0.00
162, -187500.02, -187500.02, -187500.02, -187500.02, -185090.13, -184913.27, -187500.02, -187500.02, 0.00, 0.00, 0.00
163, -187500.02, -187500.02, -187500.02, -187500.02, -184822.08, -185477.81, -187500.02, -187500.02, 0.00, 0.00, 0.00
164, -187500.02, -187500.02, -187500.02, -187500.02, -184704.50, -185673.00, -187500.02, -187500.02, 0.00, 0.00, 0.00
165, -187500.02, -187500.02, -187500.02, -187500.02, -184983.98, -185067.86, -187500.02, -187500.02, 0.00, 0.00, 0.00
166, -187500.02, -187500.02, -187500.02, -187500.02, -185099.70, -184864.09, -187500.02, -187500.02, 0.02, 0.91, 0.40
167, -187500.02, -187500.02, -187500.02, -187500.02, -184875.88, -185359.70, -187500.02, -187500.02, 0.00, 0.00, 0.00
168, -187500.02, -187500.02, -187500.02, -187500.02, -184684.36, -185717.28, -187500.02, -187500.02, 0.00, 0.00, 0.00
169, -187500.02, -187500.02, -187500.02, -187500.02, -184928.88, -185171.33, -187500.02, -187500.02, 0.00, 0.00, 0.00
170, -187500.02, -187500.02, -187500.02, -187500.02, -185102.48, -184843.91, -187500.02, -187500.02, 0.00, 0.00, 0.00
171, -187500.02, -187500.02, -187500.02, -187500.02, -184932.83, -185233.45, -187500.02, -187500.02, 0.00, 0.00, 0.00
172, -187500.02, -187500.02, -187500.02, -187500.02, -184685.19, -185724.14, -187500.02, -187500.02, 0.00, 0.00, 0.00
173, -187500.02, -187500.02, -187500.02, -187500.02, -184876.55, -185278.81, -187500.02, -187500.02, 0.00, 0.00, 0.00
174, -187500.02, -187500.02, -187500.02, -187500.02, -185095.66, -184846.59, -187500.02, -187500.02, 0.00, 0.00, 0.00
175, -187500.02, -187500.02, -187500.02, -187500.02, -184981.89, -185115.52, -187500.02, -187500.02, 0.00, 0.00, 0.00
176, -187500.02, -187500.02, -187500.02, -187500.02, -184700.77, -185694.98, -187500.02, -187500.02, 0.01, 0.91, 0.40
177, -187500.02, -187500.02, -187500.02, -187500.02, -184818.19, -185400.16, -187500.02, -187500.02, 0.00, 0.00, 0.00
178, -187500.02, -187500.02, -187500.02, -187500.02, -185078.83, -184876.48, -187500.02, -187500.02, 0.00, 0.00, 0.00
179, -187500.02, -187500.02, -187500.02, -187500.02, -185025.77, -185031.67, -187500.02, -187500.02, 0.00, 0.00, 0.00
180, -187500.02, -187500.02, -187500.02, -187500.02, -184733.23, -185643.39, -187500.02, -187500.02, 0.00, 0.00, 0.00
181, -187500.02, -187500.02, -187500.02, -187500.02, -184764.19, -185524.86, -187500.02, -187500.02, 0.00, 0.00, 0.00
182, -187500.02, -187500.02, -187500.02, -187500.02, -185051.41, -184933.09, -187500.02, -187500.02, 0.00, 0.00, 0.00
183, -187500.02, -187500.02, -187500.02, -187500.02, -185064.77, -184946.19, -187500.02, -187500.02, 0.00, 0.00, 0.00
184, -187500.02, -187500.02, -187500.02, -187500.02, -184781.42, -185549.27, -187500.02, -187500.02, 0.00, 0.00, 0.00
185, -187500.02, -187500.02, -187500.02, -187500.02, -184729.03, -185609.42, -187500.02, -187500.02, 0.02, 0.91, 0.40
186, -187500.02, -187500.02, -187500.02, -187500.02, -185021.41, -184995.86, -187500.02, -187500.02, 0.00, 0.00, 0.00
187, -187500.02, -187500.02, -187500.02, -187500.02, -185098.05, -184883.88, -187500.02, -187500.02, 0.00, 0.00, 0.00
188, -187500.02, -187500.02, -187500.02, -187500.02, -184844.70, -185433.58, -187500.02, -187500.02, 0.00, 0.00, 0.00
189, -187500.02, -187500.02, -187500.02, -187500.02, -184703.72, -185676.81, -187500.02, -187500.02, 0.00, 0.00, 0.00
190, -187500.02, -187500.02, -187500.02, -187500.02, -184978.53, -185084.08, -187500.02, -187500.02, 0.00, 0.00, 0.00
191, -187500.02, -187500.02, -187500.02, -187500.02, -185115.23, -184849.64, -187500.02, -187500.02, 0.00, 0.00, 0.00
192, -187500.02, -187500.02, -187500.02, -187500.02, -184902.66, -185313.08, -187500.02, -187500.02, 0.00, 0.00, 0.00
193, -187500.02, -187500.02, -187500.02, -187500.02, -184689.08, -185711.97, -187500.02, -187500.02, 0.00, 0.00, 0.00
194, -187500.02, -187500.02, -187500.02, -187500.02, -184921.94, -185187.70, -187500.02, -187500.02, 0.00, 0.00, 0.00
195, -187500.02, -187500.02, -187500.02, -187500.02, -185106.92, -184831.73, -187500.02, -187500.02, 0.02, 0.91, 0.40
196, -187500.02, -187500.02, -187500.02, -187500.02, -184948.55, -185188.64, -187500.02, -187500.02, 0.00, 0.00, 0.00
197, -187500.02, -187500.02, -187500.02, -187500.02, -184687.63, -185708.30, -187500.02, -187500.02, 0.00, 0.00, 0.00
198, -187500.02, -187500.02, -187500.02, -187500.02, -184860.14, -185306.22, -187500.02, -187500.02, 0.00, 0.00, 0.00
199, -187500.02, -187500.02, -187500.02, -187500.02, -185095.59, -184843.94, -187500.02, -187500.02, 0.00, 0.00, 0.00
200, -187500.02, -187500.02, -187500.02, -187500.02, -184999.61, -185085.02, -187500.02, -187500.02, 0.00, 0.00, 0.00
201, -187500.02, -187500.02, -187500.02, -187500.02, -184711.61, -185674.86, -187500.02, -187500.02, 0.00, 0.00, 0.00
202, -187500.02, -187500.02, -187500.02, -187500.02, -184805.78, -185423.63, -187500.02, -187500.02, 0.00, 0.00, 0.00
203, -187500.02, -187500.02, -187500.02, -187500.02, -185075.55, -184876.92, -187500.02, -187500.02, 0.00, 0.00, 0.00
204, -187500.02, -187500.02, -187500.02, -187500.02, -185040.25, -184986.88, -187500.02, -187500.02, 0.00, 0.00, 0.00
205, -187500.02, -187500.02, -187500.02, -187500.02, -184745.23, -185599.05, -187500.02, -187500.02, 0.02, 0.90, 0.41
206, -187500.02, -187500.02, -187500.02, -187500.02, -184754.28, -185530.64, -187500.02, -187500.02, 0.00, 0.00, 0.00
207, -187500.02, -187500.02, -187500.02, -187500.02, -185041.08, -184929.59, -187500.02, -187500.02, 0.00, 0.00, 0.00
208, -187500.02, -187500.02, -187500.02, -187500.02, -185071.08, -184907.95, -187500.02, -187500.02, 0.00, 0.00, 0.00
209, -187500.02, -187500.02, -187500.02, -187500.02, -184794.11, -185500.50, -187500.02, -187500.02, 0.00, 0.00, 0.00
210, -187500.02, -187500.02, -187500.02, -187500.02, -184717.94, -185614.95, -187500.02, -187500.02, 0.00, 0.00, 0.00
211, -187500.02, -187500.02, -187500.02, -187500.02, -185006.20, -185001.67, -187500.02, -187500.02, 0.00, 0.00, 0.00
212, -187500.02, -187500.02, -187500.02, -187500.02, -185093.77, -184849.17, -187500.02, -187500.02, 0.00, 0.00, 0.00
213, -187500.02, -187500.02, -187500.02, -187500.02, -184850.70, -185372.75, -187500.02, -187500.02, 0.00, 0.00, 0.00
214, -187500.02, -187500.02, -187500.02, -187500.02, -184689.58, -185670.56, -187500.02, -187500.02, 0.00, 0.00, 0.00
215, -187500.02, -187500.02, -187500.02, -187500.02, -184953.06, -185088.02, -187500.02, -187500.02, 0.02, 0.91, 0.40
216, -187500.02, -187500.02, -187500.02, -187500.02, -185102.20, -184817.22, -187500.02, -187500.02, 0.00, 0.00, 0.00
217, -187500.02, -187500.02, -187500.02, -187500.02, -184908.23, -185254.56, -187500.02, -187500.02, 0.00, 0.00, 0.00
218, -187500.02, -187500.02, -187500.02, -187500.02, -184681.84, -185697.70, -187500.02, -187500.02, 0.00, 0.00, 0.00
219, -187500.02, -187500.02, -187500.02, -187500.02, -184898.47, -185206.45, -187500.02, -187500.02, 0.00, 0.00, 0.00
220, -187500.02, -187500.02, -187500.02, -187500.02, -185096.52, -184814.92, -187500.02, -187500.02, 0.00, 0.00, 0.00
221, -187500.02, -187500.02, -187500.02, -187500.02, -184960.14, -185141.23, -187500.02, -187500.02, 0.00, 0.00, 0.00
222, -187500.02, -187500.02, -187500.02, -187500.02, -184692.38, -185687.98, -187500.02, -187500.02, 0.00, 0.00, 0.00
223, -187500.02, -187500.02, -187500.02, -187500.02, -184841.64, -185322.44, -187500.02, -187500.02, 0.00, 0.00, 0.00
224, -187500.02, -187500.02, -187500.02, -187500.02, -185086.36, -184832.14, -187500.02, -187500.02, 0.00, 0.00, 0.00
225, -187500.02, -187500.02, -187500.02, -187500.02, -185011.11, -185036.88, -187500.02, -187500.02, 0.02, 0.91, 0.40
226, -187500.02, -187500.02, -187500.02, -187500.02, -184720.38, -185638.34, -187500.02, -187500.02, 0.00, 0.00, 0.00
227, -187500.02, -187500.02, -187500.02, -187500.02, -184788.03, -185439.44, -187500.02, -187500.02, 0.00, 0.00, 0.00
228, -187500.02, -187500.02, -187500.02, -187500.02, -185066.31, -184874.88, -187500.02, -187500.02, 0.00, 0.00, 0.00
229, -187500.02, -187500.02, -187500.02, -187500.02, -185053.38, -184947.84, -187500.02, -187500.02, 0.00, 0.00, 0.00
230, -187500.02, -187500.02, -187500.02, -187500.02, -184762.59, -185557.83, -187500.02, -187500.02, 0.00, 0.00, 0.00
231, -187500.02, -187500.02, -187500.02, -187500.02, -184742.89, -185540.58, -187500.02, -187500.02, 0.00, 0.00, 0.00
232, -187500.02, -187500.02, -187500.02, -187500.02, -185034.34, -184937.08, -187500.02, -187500.02, 0.00, 0.00, 0.00
233, -187500.02, -187500.02, -187500.02, -187500.02, -185082.47, -184878.05, -187500.02, -187500.02, 0.00, 0.00, 0.00
234, -187500.02, -187500.02, -187500.02, -187500.02, -184813.56, -185453.02, -187500.02, -187500.02, 0.00, 0.00, 0.00
235, -187500.02, -187500.02, -187500.02, -187500.02, -184706.30, -185621.53, -187500.02, -187500.02, 0.02, 0.91, 0.41
236, -187500.02, -187500.02, -187500.02, -187500.02, -184983.72, -185014.48, -187500.02, -187500.02, 0.00, 0.00, 0.00
237, -187500.02, -187500.02, -187500.02, -187500.02, -185093.69, -184827.94, -187500.02, -187500.02, 0.00, 0.00, 0.00
238, -187500.02, -187500.02, -187500.02, -187500.02, -184863.73, -185333.75, -187500.02, -187500.02, 0.00, 0.00, 0.00
239, -187500.02, -187500.02, -187500.02, -187500.02, -184682.16, -185673.34, -187500.02, -187500.02, 0.00, 0.00, 0.00
240, -187500.02, -187500.02, -187500.02, -187500.02, -184929.52, -185114.28, -187500.02, -187500.02, 0.00, 0.00, 0.00
241, -187500.02, -187500.02, -187500.02, -187500.02, -185093.81, -184804.28, -187500.02, -187500.02, 0.00, 0.00, 0.00
242, -187500.02, -187500.02, -187500.02, -187500.02, -184912.58, -185211.16, -187500.02, -187500.02, 0.00, 0.00, 0.00
243, -187500.02, -187500.02, -187500.02, -187500.02, -184671.89, -185688.55, -187500.02, -187500.02, 0.00, 0.00, 0.00
244, -187500.02, -187500.02, -187500.02, -187500.02, -184863.66, -185230.78, -187500.02, -187500.02, 0.00, 0.00, 0.00
245, -187500.02, -187500.02, -187500.02, -187500.02, -185074.05, -184803.95, -187500.02, -187500.02, 0.03, 0.91, 0.40
246, -187500.02, -187500.02, -187500.02, -187500.02, -184954.06, -185098.95, -187500.02, -187500.02, 0.00, 0.00, 0.00
247, -187500.02, -187500.02, -187500.02, -187500.02, -184683.20, -185668.27, -187500.02, -187500.02, 0.00, 0.00, 0.00
248, -187500.02, -187500.02, -187500.02, -187500.02, -184809.64, -185350.67, -187500.02, -187500.02, 0.00, 0.00, 0.00
249, -187500.02, -187500.02, -187500.02, -187500.02, -185059.14, -184829.19, -187500.02, -187500.02, 0.00, 0.00, 0.00
250, -187500.02, -187500.02, -187500.02, -187500.02, -185000.13, -184994.81, -187500.02, -187500.02, 0.00, 0.00, 0.00
251, -187500.02, -187500.02, -187500.02, -187500.02, -184716.23, -185610.67, -187500.02, -187500.02, 0.00, 0.00, 0.00
252, -187500.02, -187500.02, -187500.02, -187500.02, -184761.03, -185459.55, -187500.02, -187500.02, 0.00, 0.00, 0.00
253, -187500.02, -187500.02, -187500.02, -187500.02, -185035.80, -184868.02, -187500.02, -187500.02, 0.00, 0.00, 0.00
254, -187500.02, -187500.02, -187500.02, -187500.02, -185040.67, -184904.94, -187500.02, -187500.02, 0.00, 0.00, 0.00
255, -187500.02, -187500.02, -187500.02, -187500.02, -184760.77, -185517.50, -187500.02, -187500.02, 0.02, 0.92, 0.39
0, -187500.02, -187500.02, -187500.02, -187500.02, -184720.23, -185553.48, -187500.02, -187500.02, 0.00, 0.00, 0.00
1, -187500.02, -187500.02, -187500.02, -187500.02, -185005.36, -184934.69, -187500.02, -187500.02, 0.00, 0.00, 0.00
2, -187500.02, -187500.02, -187500.02, -187500.02, -185069.94, -184836.00, -187500.02, -187500.02, 0.00, 0.00, 0.00
3, -187500.02, -187500.02, -187500.02, -187500.02, -184812.20, -185397.00, -187500.02, -187500.02, 0.00, 0.00, 0.00
4, -187500.02, -187500.02, -187500.02, -187500.02, -184686.11, -185619.56, -187500.02, -187500.02, 0.00, 0.00, 0.00
5, -187500.02, -187500.02, -187500.02, -187500.02, -184954.28, -185011.89, -187500.02, -187500.02, 0.00, 0.00, 0.00
6, -187500.02, -187500.02, -187500.02, -187500.02, -185073.38, -184789.31, -187500.02, -187500.02, 0.00, 0.00, 0.00
7, -187500.02, -187500.02, -187500.02, -187500.02, -184860.83, -185269.06, -187500.02, -187500.02, 0.00, 0.00, 0.00
8, -187500.02, -187500.02, -187500.02, -187500.02, -184662.48, -185656.83, -187500.02, -187500.02, 0.00, 0.00, 0.00
9, -187500.02, -187500.02, -187500.02, -187500.02, -184889.58, -185108.36, -187500.02, -187500.02, 0.02, 0.92, 0.40
10, -187500.02, -187500.02, -187500.02, -187500.02, -185053.97, -184757.53, -187500.02, -187500.02, 0.00, 0.00, 0.00
11, -187500.02, -187500.02, -187500.02, -187500.02, -184893.27, -185136.23, -187500.02, -187500.02, 0.00, 0.00, 0.00
12, -187500.02, -187500.02, -187500.02, -187500.02, -184651.53, -185658.86, -187500.02, -187500.02, 0.00, 0.00, 0.00
13, -187500.02, -187500.02, -187500.02, -187500.02, -184817.47, -185222.23, -187500.02, -187500.02, 0.00, 0.00, 0.00
14, -187500.02, -187500.02, -187500.02, -187500.02, -185020.16, -184752.11, -187500.02, -187500.02, 0.00, 0.00, 0.00
15, -187500.02, -187500.02, -187500.02, -187500.02, -184916.84, -185006.88, -187500.02, -187500.02, 0.00, 0.00, 0.00
16, -187500.02, -187500.02, -187500.02, -187500.02, -184655.83, -185616.28, -187500.02, -187500.02, 0.00, 0.00, 0.00
17, -187500.02, -187500.02, -187500.02, -187500.02, -184751.63, -185328.61, -187500.02, -187500.02, 0.00, 0.00, 0.00
18, -187500.02, -187500.02, -187500.02, -187500.02, -184982.05, -184767.17, -187500.02, -187500.02, 0.02, 0.92, 0.40
19, -187500.02, -187500.02, -187500.02, -187500.02, -184937.56, -184887.91, -187500.02, -187500.02, 0.00, 0.00, 0.00
20, -187500.02, -187500.02, -187500.02, -187500.02, -184675.50, -185528.03, -187500.02, -187500.02, 0.00, 0.00, 0.00
21, -187500.02, -187500.02, -187500.02, -187500.02, -184693.69, -185427.31, -187500.02, -187500.02, 0.00, 0.00, 0.00
22, -187500.02, -187500.02, -187500.02, -187500.02, -184942.22, -184800.94, -187500.02, -187500.02, 0.00, 0.00, 0.00
23, -187500.02, -187500.02, -187500.02, -187500.02, -184957.81, -184795.70, -187500.02, -187500.02, 0.00, 0.00, 0.00
24, -187500.02, -187500.02, -187500.02, -187500.02, -184716.02, -185418.02, -187500.02, -187500.02, 0.00, 0.00, 0.00
25, -187500.02, -187500.02, -187500.02, -187500.02, -184662.53, -185520.88, -187500.02, -187500.02, 0.00, 0.00, 0.00
26, -187500.02, -187500.02, -187500.02, -187500.02, -184915.02, -184876.39, -187500.02, -187500.02, 0.00, 0.00, 0.00
27, -187500.02, -187500.02, -187500.02, -187500.02, -184992.22, -184723.06, -187500.02, -187500.02, 0.00, 0.00, 0.00
28, -187500.02, -187500.02, -187500.02, -187500.02, -184794.09, -185283.73, -187500.02, -187500.02, 0.03, 0.92, 0.40
29, -187500.02, -187500.02, -187500.02, -187500.02, -184675.78, -185564.47, -187500.02, -187500.02, 0.00, 0.00, 0.00
30, -187500.02, -187500.02, -187500.02, -187500.02, -184904.78, -184953.91, -187500.02, -187500.02, 0.00, 0.00, 0.00
31, -187500.02, -187500.02, -187500.02, -187500.02, -185048.34, -184663.28, -187500.02, -187500.02, 0.00, 0.00, 0.00
32, -187500.02, -187500.02, -187500.02, -187500.02, -184921.47, -185109.25, -187500.02, -187500.02, 0.00, 0.00, 0.00
33, -187500.02, -187500.02, -187500.02, -187500.02, -184754.75, -185565.56, -187500.02, -187500.02, 0.00, 0.00, 0.00
34, -187500.02, -187500.02, -187500.02, -187500.02, -184934.33, -185055.47, -187500.02, -187500.02, 0.00, 0.00, 0.00
35, -187500.02, -187500.02, -187500.02, -187500.02, -185137.22, -184642.05, -187500.02, -187500.02, 0.00, 0.00, 0.00
36, -187500.02, -187500.02, -187500.02, -187500.02, -185101.81, -184945.61, -187500.02, -187500.02, 0.00, 0.00, 0.00
37, -187500.02, -187500.02, -187500.02, -187500.02, -184918.70, -185505.88, -187500.02, -187500.02, 0.00, 0.00, 0.00
38, -187500.02, -187500.02, -187500.02, -187500.02, -184985.58, -185188.36, -187500.02, -187500.02, 0.02, 0.91, 0.40
39, -187500.02, -187500.02, -187500.02, -187500.02, -185220.42, -184674.36, -187500.02, -187500.02, 0.00, 0.00, 0.00
40, -187500.02, -187500.02, -187500.02, -187500.02, -185282.55, -184820.56, -187500.02, -187500.02, 0.00, 0.00, 0.00
41, -187500.02, -187500.02, -187500.02, -187500.02, -185135.05, -185394.84, -187500.02, -187500.02, 0.00, 0.00, 0.00
42, -187500.02, -187500.02, -187500.02, -187500.02, -185112.98, -185276.53, -187500.02, -187500.02, 0.00, 0.00, 0.00
43, -187500.02, -187500.02, -187500.02, -187500.02, -185327.00, -184725.42, -187500.02, -187500.02, 0.00, 0.00, 0.00
44, -187500.02, -187500.02, -187500.02, -187500.02, -185461.36, -184718.31, -187500.02, -187500.02, 0.00, 0.00, 0.00
45, -187500.02, -187500.02, -187500.02, -187500.02, -185380.25, -185253.47, -187500.02, -187500.02, 0.00, 0.00, 0.00
46, -187500.02, -187500.02, -187500.02, -187500.02, -185298.34, -185311.00, -187500.02, -187500.02, 0.00, 0.00, 0.00
47, -187500.02, -187500.02, -187500.02, -187500.02, -185446.53, -184789.05, -187500.02, -187500.02, 0.00, 0.00, 0.00
48, -187500.02, -187500.02, -187500.02, -187500.02, -185613.89, -184664.20, -187500.02, -187500.02, 0.02, 0.91, 0.39
49, -187500.02, -187500.02, -187500.02, -187500.02, -185616.17, -185117.08, -187500.02, -187500.02, 0.00, 0.00, 0.00
50, -187500.02, -187500.02, -187500.02, -187500.02, -185514.48, -185318.11, -187500.02, -187500.02, 0.00, 0.00, 0.00
51, -187500.02, -187500.02, -187500.02, -187500.02, -185571.02, -184860.56, -187500.02, -187500.02, 0.00, 0.00, 0.00
52, -187500.02, -187500.02, -187500.02, -187500.02, -185722.34, -184659.28, -187500.02, -187500.02, 0.00, 0.00, 0.00
53, -187500.02, -187500.02, -187500.02, -187500.02, -185777.66, -185015.13, -187500.02, -187500.02, 0.00, 0.00, 0.00
54, -187500.02, -187500.02, -187500.02, -187500.02, -185698.06, -185317.88, -187500.02, -187500.02, 0.00, 0.00, 0.00
55, -187500.02, -187500.02, -187500.02, -187500.02, -185683.84, -184935.78, -187500.02, -187500.02, 0.00, 0.00, 0.00
56, -187500.02, -187500.02, -187500.02, -187500.02, -185782.83, -184680.59, -187500.02, -187500.02, 0.00, 0.00, 0.00
57, -187500.02, -187500.02, -187500.02, -187500.02, -185851.28, -184948.16, -187500.02, -187500.02, 0.00, 0.00, 0.00
58, -187500.02, -187500.02, -187500.02, -187500.02, -185800.95, -185321.41, -187500.02, -187500.02, 0.02, 0.91, 0.40
59, -187500.02, -187500.02, -187500.02, -187500.02, -185754.55, -185021.39, -187500.02, -187500.02, 0.00, 0.00, 0.00
60, -187500.02, -187500.02, -187500.02, -187500.02, -185815.66, -184694.45, -187500.02, -187500.02, 0.00, 0.00, 0.00
61, -187500.02, -187500.02, -187500.02, -187500.02, -185873.75, -184881.59, -187500.02, -187500.02, 0.00, 0.00, 0.00
62, -187500.02, -187500.02, -187500.02, -187500.02, -185829.95, -185320.47, -187500.02, -187500.02, 0.00, 0.00, 0.00
63, -187500.02, -187500.02, -187500.02, -187500.02, -185779.17, -185117.56, -187500.02, -187500.02, 0.00, 0.00, 0.00
64, -187500.02, -187500.02, -187500.02, -187500.02, -185824.13, -184731.27, -187500.02, -187500.02, 0.00, 0.00, 0.00
65, -187500.02, -187500.02, -187500.02, -187500.02, -185871.73, -184831.98, -187500.02, -187500.02, 0.00, 0.00, 0.00
66, -187500.02, -187500.02, -187500.02, -187500.02, -185826.45, -185307.73, -187500.02, -187500.02, 0.00, 0.00, 0.00
67, -187500.02, -187500.02, -187500.02, -187500.02, -185767.27, -185212.14, -187500.02, -187500.02, 0.00, 0.00, 0.00
68, -187500.02, -187500.02, -187500.02, -187500.02, -185806.17, -184763.47, -187500.02, -187500.02, 0.02, 0.91, 0.40
69, -187500.02, -187500.02, -187500.02, -187500.02, -185854.02, -184772.08, -187500.02, -187500.02, 0.00, 0.00, 0.00
70, -187500.02, -187500.02, -187500.02, -187500.02, -185818.00, -185259.50, -187500.02, -187500.02, 0.00, 0.00, 0.00
71, -187500.02, -187500.02, -187500.02, -187500.02, -185760.20, -185312.89, -187500.02, -187500.02, 0.00, 0.00, 0.00
72, -187500.02, -187500.02, -187500.02, -187500.02, -185797.63, -184833.70, -187500.02, -187500.02, 0.00, 0.00, 0.00
73, -187500.02, -187500.02, -187500.02, -187500.02, -185852.22, -184754.11, -187500.02, -187500.02, 0.00, 0.00, 0.00
74, -187500.02, -187500.02, -187500.02, -187500.02, -185824.86, -185221.13, -187500.02, -187500.02, 0.00, 0.00, 0.00
75, -187500.02, -187500.02, -187500.02, -187500.02, -185764.58, -185417.23, -187500.02, -187500.02, 0.00, 0.00, 0.00
76, -187500.02, -187500.02, -187500.02, -187500.02, -185796.66, -184930.08, -187500.02, -187500.02, 0.00, 0.00, 0.00
77, -187500.02, -187500.02, -187500.02, -187500.02, -185847.53, -184731.31, -187500.02, -187500.02, 0.00, 0.00, 0.00
78, -187500.02, -187500.02, -187500.02, -187500.02, -185824.00, -185139.31, -187500.02, -187500.02, 0.02, 0.91, 0.39
79, -187500.02, -187500.02, -187500.02, -187500.02, -185764.02, -185472.69, -187500.02, -187500.02, 0.00, 0.00, 0.00
80, -187500.02, -187500.02, -187500.02, -187500.02, -185789.66, -185013.27, -187500.02, -187500.02, 0.00, 0.00, 0.00
81, -187500.02, -187500.02, -187500.02, -187500.02, -185844.38, -184711.38, -187500.02, -187500.02, 0.00, 0.00, 0.00
82, -187500.02, -187500.02, -187500.02, -187500.02, -185841.34, -185037.22, -187500.02, -187500.02, 0.00, 0.00, 0.00
83, -187500.02, -187500.02, -187500.02, -187500.02, -185788.08, -185493.59, -187500.02, -187500.02, 0.00, 0.00, 0.00
84, -187500.02, -187500.02, -187500.02, -187500.02, -185808.97, -185112.48, -187500.02, -187500.02, 0.00, 0.00, 0.00
85, -187500.02, -187500.02, -187500.02, -187500.02, -185869.33, -184707.97, -187500.02, -187500.02, 0.00, 0.00, 0.00
86, -187500.02, -187500.02, -187500.02, -187500.02, -185881.77, -184940.58, -187500.02, -187500.02, 0.00, 0.00, 0.00
87, -187500.02, -187500.02, -187500.02, -187500.02, -185839.69, -185484.58, -187500.02, -187500.02, 0.00, 0.00, 0.00
88, -187500.02, -187500.02, -187500.02, -187500.02, -185847.50, -185230.05, -187500.02, -187500.02, 0.02, 0.91, 0.39
89, -187500.02, -187500.02, -187500.02, -187500.02, -185896.64, -184726.81, -187500.02, -187500.02, 0.00, 0.00, 0.00
90, -187500.02, -187500.02, -187500.02, -187500.02, -185911.39, -184842.45, -187500.02, -187500.02, 0.00, 0.00, 0.00
91, -187500.02, -187500.02, -187500.02, -187500.02, -185873.17, -185419.19, -187500.02, -187500.02, 0.00, 0.00, 0.00
92, -187500.02, -187500.02, -187500.02, -187500.02, -185874.70, -185328.67, -187500.02, -187500.02, 0.00, 0.00, 0.00
93, -187500.02, -187500.02, -187500.02, -187500.02, -185924.48, -184765.30, -187500.02, -187500.02, 0.00, 0.00, 0.00
94, -187500.02, -187500.02, -187500.02, -187500.02, -185946.14, -184757.64, -187500.02, -187500.02, 0.00, 0.00, 0.00
95, -187500.02, -187500.02, -187500.02, -187500.02, -185916.89, -185331.77, -187500.02, -187500.02, 0.00, 0.00, 0.00
96, -187500.02, -187500.02, -187500.02, -187500.02, -185904.25, -185409.25, -187500.02, -187500.02, 0.00, 0.00, 0.00
97, -187500.02, -187500.02, -187500.02, -187500.02, -185941.72, -184813.02, -187500.02, -187500.02, 0.02, 0.91, 0.39
98, -187500.02, -187500.02, -187500.02, -187500.02, -185962.95, -184685.02, -187500.02, -187500.02, 0.00, 0.00, 0.00
99, -187500.02, -187500.02, -187500.02, -187500.02, -185932.08, -185214.28, -187500.02, -187500.02, 0.00, 0.00, 0.00
100, -187500.02, -187500.02, -187500.02, -187500.02, -185907.86, -185474.97, -187500.02, -187500.02, 0.00, 0.00, 0.00
101, -187500.02, -187500.02, -187500.02, -187500.02, -185941.20, -184898.00, -187500.02, -187500.02, 0.00, 0.00, 0.00
102, -187500.02, -187500.02, -187500.02, -187500.02, -185957.19, -184642.88, -187500.02, -187500.02, 0.00, 0.00, 0.00
103, -187500.02, -187500.02, -187500.02, -187500.02, -185926.13, -185091.23, -187500.02, -187500.02, 0.00, 0.00, 0.00
104, -187500.02, -187500.02, -187500.02, -187500.02, -185888.81, -185510.13, -187500.02, -187500.02, 0.00, 0.00, 0.00
105, -187500.02, -187500.02, -187500.02, -187500.02, -185909.59, -184993.78, -187500.02, -187500.02, 0.00, 0.00, 0.00
106, -187500.02, -187500.02, -187500.02, -187500.02, -185925.52, -184618.66, -187500.02, -187500.02, 0.00, 0.00, 0.00
107, -187500.02, -187500.02, -187500.02, -187500.02, -185894.20, -184958.80, -187500.02, -187500.02, 0.02, 0.91, 0.39
108, -187500.02, -187500.02, -187500.02, -187500.02, -185842.19, -185502.94, -187500.02, -187500.02, 0.00, 0.00, 0.00
109, -187500.02, -187500.02, -187500.02, -187500.02, -185857.23, -185105.86, -187500.02, -187500.02, 0.00, 0.00, 0.00
110, -187500.02, -187500.02, -187500.02, -187500.02, -185879.22, -184621.98, -187500.02, -187500.02, 0.00, 0.00, 0.00
111, -187500.02, -187500.02, -187500.02, -187500.02, -185850.44, -184841.86, -187500.02, -187500.02, 0.00, 0.00, 0.00
112, -187500.02, -187500.02, -187500.02, -187500.02, -185788.05, -185463.22, -187500.02, -187500.02, 0.00, 0.00, 0.00
113, -187500.02, -187500.02, -187500.02, -187500.02, -185784.72, -185220.11, -187500.02, -187500.02, 0.00, 0.00, 0.00
114, -187500.02, -187500.02, -187500.02, -187500.02, -185810.52, -184642.13, -187500.02, -187500.02, 0.00, 0.00, 0.00
115, -187500.02, -187500.02, -187500.02, -187500.02, -185790.98, -184734.88, -187500.02, -187500.02, 0.00, 0.00, 0.00
116, -187500.02, -187500.02, -187500.02, -187500.02, -185719.83, -185386.95, -187500.02, -187500.02, 0.00, 0.00, 0.00
117, -187500.02, -187500.02, -187500.02, -187500.02, -185699.14, -185330.67, -187500.02, -187500.02, 0.02, 0.91, 0.39
118, -187500.02, -187500.02, -187500.02, -187500.02, -185730.77, -184675.89, -187500.02, -187500.02, 0.00, 0.00, 0.00
119, -187500.02, -187500.02, -187500.02, -187500.02, -185716.44, -184621.98, -187500.02, -187500.02, 0.00, 0.00, 0.00
120, -187500.02, -187500.02, -187500.02, -187500.02, -185633.36, -185263.75, -187500.02, -187500.02, 0.00, 0.00, 0.00
121, -187500.02, -187500.02, -187500.02, -187500.02, -185589.08, -185418.70, -187500.02, -187500.02, 0.00, 0.00, 0.00
122, -187500.02, -187500.02, -187500.02, -187500.02, -185631.77, -184726.23, -187500.02, -187500.02, 0.00, 0.00, 0.00
123, -187500.02, -187500.02, -187500.02, -187500.02, -185629.13, -184523.25, -187500.02, -187500.02, 0.00, 0.00, 0.00
124, -187500.02, -187500.02, -187500.02, -187500.02, -185542.14, -185109.70, -187500.02, -187500.02, 0.00, 0.00, 0.00
125, -187500.02, -187500.02, -187500.02, -187500.02, -185478.09, -185470.88, -187500.02, -187500.02, 0.00, 0.00, 0.00
126, -187500.02, -187500.02, -187500.02, -187500.02, -185525.86, -184818.80, -187500.02, -187500.02, 0.00, 0.00, 0.00
127, -187500.02, -187500.02, -187500.02, -187500.02, -185539.95, -184468.63, -187500.02, -187500.02, 0.02, 0.91, 0.40
128, -187500.02, -187500.02, -187500.02, -187500.02, -185462.13, -184952.00, -187500.02, -187500.02, 0.00, 0.00, 0.00
129, -187500.02, -187500.02, -187500.02, -187500.02, -185376.67, -185489.20, -187500.02, -187500.02, 0.00, 0.00, 0.00
130, -187500.02, -187500.02, -187500.02, -187500.02, -185413.28, -184932.11, -187500.02, -187500.02, 0.00, 0.00, 0.00
131, -187500.02, -187500.02, -187500.02, -187500.02, -185438.67, -184457.34, -187500.02, -187500.02, 0.00, 0.00, 0.00
132, -187500.02, -187500.02, -187500.02, -187500.02, -185360.95, -184800.69, -187500.02, -187500.02, 0.00, 0.00, 0.00
133, -187500.02, -187500.02, -187500.02, -187500.02, -185248.59, -185458.72, -187500.02, -187500.02, 0.00, 0.00, 0.00
134, -187500.02, -187500.02, -187500.02, -187500.02, -185251.00, -185066.33, -187500.02, -187500.02, 0.00, 0.00, 0.00
135, -187500.02, -187500.02, -187500.02, -187500.02, -185276.86, -184482.38, -187500.02, -187500.02, 0.00, 0.00, 0.00
136, -187500.02, -187500.02, -187500.02, -187500.02, -185215.53, -184701.47, -187500.02, -187500.02, 0.00, 0.00, 0.00
137, -187500.02, -187500.02, -187500.02, -187500.02, -185093.63, -185417.22, -187500.02, -187500.02, 0.02, 0.92, 0.40
138, -187500.02, -187500.02, -187500.02, -187500.02, -185067.81, -185225.77, -187500.02, -187500.02, 0.00, 0.00, 0.00
139, -187500.02, -187500.02, -187500.02, -187500.02, -185100.67, -184553.14, -187500.02, -187500.02, 0.00, 0.00, 0.00
140, -187500.02, -187500.02, -187500.02, -187500.02, -185056.59, -184591.73, -187500.02, -187500.02, 0.00, 0.00, 0.00
141, -187500.02, -187500.02, -187500.02, -187500.02, -184937.08, -185307.89, -187500.02, -187500.02, 0.00, 0.00, 0.00
142, -187500.02, -187500.02, -187500.02, -187500.02, -184887.50, -185331.92, -187500.02, -187500.02, 0.00, 0.00, 0.00
143, -187500.02, -187500.02, -187500.02, -187500.02, -184925.00, -184639.42, -187500.02, -187500.02, 0.00, 0.00, 0.00
144, -187500.02, -187500.02, -187500.02, -187500.02, -184903.92, -184557.39, -187500.02, -187500.02, 0.00, 0.00, 0.00
145, -187500.02, -187500.02, -187500.02, -187500.02, -184798.00, -185233.61, -187500.02, -187500.02, 0.00, 0.00, 0.00
146, -187500.02, -187500.02, -187500.02, -187500.02, -184718.05, -185478.72, -187500.02, -187500.02, 0.00, 0.00, 0.00
147, -187500.02, -187500.02, -187500.02, -187500.02, -184726.86, -184773.06, -187500.02, -187500.02, 0.02, 0.91, 0.40
148, -187500.02, -187500.02, -187500.02, -187500.02, -184704.64, -184513.84, -187500.02, -187500.02, 0.00, 0.00, 0.00
149, -187500.02, -187500.02, -187500.02, -187500.02, -184608.80, -185083.25, -187500.02, -187500.02, 0.00, 0.00, 0.00
150, -187500.02, -187500.02, -187500.02, -187500.02, -184501.06, -185524.17, -187500.02, -187500.02, 0.00, 0.00, 0.00
151, -187500.02, -187500.02, -187500.02, -187500.02, -184466.28, -184901.58, -187500.02, -187500.02, 0.00, 0.00, 0.00
152, -187500.02, -187500.02, -187500.02, -187500.02, -184444.05, -184502.83, -187500.02, -187500.02, 0.00, 0.00, 0.00
153, -187500.02, -187500.02, -187500.02, -187500.02, -184369.83, -184931.53, -187500.02, -187500.02, 0.00, 0.00, 0.00
154, -187500.02, -187500.02, -187500.02, -187500.02, -184265.81, -185525.66, -187500.02, -187500.02, 0.00, 0.00, 0.00
155, -187500.02, -187500.02, -187500.02, -187500.02, -184226.41, -185049.45, -187500.02, -187500.02, 0.00, 0.00, 0.00
156, -187500.02, -187500.02, -187500.02, -187500.02, -184228.95, -184534.78, -187500.02, -187500.02, 0.00, 0.00, 0.00
157, -187500.02, -187500.02, -187500.02, -187500.02, -184203.38, -184807.53, -187500.02, -187500.02, 0.02, 0.91, 0.40
158, -187500.02, -187500.02, -187500.02, -187500.02, -184131.97, -185499.22, -187500.02, -187500.02, 0.00, 0.00, 0.00
159, -187500.02, -187500.02, -187500.02, -187500.02, -184063.13, -185223.89, -187500.02, -187500.02, 0.00, 0.00, 0.00
160, -187500.02, -187500.02, -187500.02, -187500.02, -184054.47, -184611.80, -187500.02, -187500.02, 0.00, 0.00, 0.00
161, -187500.02, -187500.02, -187500.02, -187500.02, -184053.06, -184721.22, -187500.02, -187500.02, 0.00, 0.00, 0.00
162, -187500.02, -187500.02, -187500.02, -187500.02, -184008.47, -185426.00, -187500.02, -187500.02, 0.00, 0.00, 0.00
163, -187500.02, -187500.02, -187500.02, -187500.02, -183926.16, -185374.09, -187500.02, -187500.02, 0.00, 0.00, 0.00
164, -187500.02, -187500.02, -187500.02, -187500.02, -183903.27, -184719.75, -187500.02, -187500.02, 0.00, 0.00, 0.00
165, -187500.02, -187500.02, -187500.02, -187500.02, -183916.94, -184651.08, -187500.02, -187500.02, 0.00, 0.00, 0.00
166, -187500.02, -187500.02, -187500.02, -187500.02, -183897.03, -185293.97, -187500.02, -187500.02, 0.00, 0.00, 0.00
167, -187500.02, -187500.02, -187500.02, -187500.02, -183803.11, -185460.27, -187500.02, -187500.02, 0.02, 0.91, 0.40
168, -187500.02, -187500.02, -187500.02, -187500.02, -183748.34, -184829.98, -187500.02, -187500.02, 0.00, 0.00, 0.00
169, -187500.02, -187500.02, -187500.02, -187500.02, -183777.84, -184628.64, -187500.02, -187500.02, 0.00, 0.00, 0.00
170, -187500.02, -187500.02, -187500.02, -187500.02, -183805.56, -185161.11, -187500.02, -187500.02, 0.00, 0.00, 0.00
171, -187500.02, -187500.02, -187500.02, -187500.02, -183730.53, -185519.73, -187500.02, -187500.02, 0.00, 0.00, 0.00
172, -187500.02, -187500.02, -187500.02, -187500.02, -183649.28, -184986.31, -187500.02, -187500.02, 0.00, 0.00, 0.00
173, -187500.02, -187500.02, -187500.02, -187500.02, -183694.20, -184661.03, -187500.02, -187500.02, 0.00, 0.00, 0.00
174, -187500.02, -187500.02, -187500.02, -187500.02, -183771.48, -185052.98, -187500.02, -187500.02, 0.00, 0.00, 0.00
175, -187500.02, -187500.02, -187500.02, -187500.02, -183723.00, -185530.30, -187500.02, -187500.02, 0.00, 0.00, 0.00
176, -187500.02, -187500.02, -187500.02, -187500.02, -183612.84, -185141.81, -187500.02, -187500.02, 0.00, 0.00, 0.00
177, -187500.02, -187500.02, -187500.02, -187500.02, -183658.95, -184716.17, -187500.02, -187500.02, 0.02, 0.91, 0.39
178, -187500.02, -187500.02, -187500.02, -187500.02, -183781.27, -184939.88, -187500.02, -187500.02, 0.00, 0.00, 0.00
179, -187500.02, -187500.02, -187500.02, -187500.02, -183779.92, -185484.89, -187500.02, -187500.02, 0.00, 0.00, 0.00
180, -187500.02, -187500.02, -187500.02, -187500.02, -183647.36, -185268.94, -187500.02, -187500.02, 0.00, 0.00, 0.00
181, -187500.02, -187500.02, -187500.02, -187500.02, -183676.80, -184799.81, -187500.02, -187500.02, 0.00, 0.00, 0.00
182, -187500.02, -187500.02, -187500.02, -187500.02, -183823.89, -184878.25, -187500.02, -187500.02, 0.00, 0.00, 0.00
183, -187500.02, -187500.02, -187500.02, -187500.02, -183862.45, -185433.02, -187500.02, -187500.02, 0.00, 0.00, 0.00
184, -187500.02, -187500.02, -187500.02, -187500.02, -183701.98, -185387.47, -187500.02, -187500.02, 0.00, 0.00, 0.00
185, -187500.02, -187500.02, -187500.02, -187500.02, -183686.63, -184890.27, -187500.02, -187500.02, 0.00, 0.00, 0.00
186, -187500.02, -187500.02, -187500.02, -187500.02, -183841.66, -184821.78, -187500.02, -187500.02, 0.02, 0.92, 0.39
187, -187500.02, -187500.02, -187500.02, -187500.02, -183926.48, -185316.08, -187500.02, -187500.02, 0.00, 0.00, 0.00
188, -187500.02, -187500.02, -187500.02, -187500.02, -183757.34, -185443.86, -187500.02, -187500.02, 0.00, 0.00, 0.00
189, -187500.02, -187500.02, -187500.02, -187500.02, -183670.42, -184973.23, -187500.02, -187500.02, 0.00, 0.00, 0.00
190, -187500.02, -187500.02, -187500.02, -187500.02, -183801.94, -184786.53, -187500.02, -187500.02, 0.00, 0.00, 0.00
191, -187500.02, -187500.02, -187500.02, -187500.02, -183917.81, -185193.52, -187500.02, -187500.02, 0.00, 0.00, 0.00
192, -187500.02, -187500.02, -187500.02, -187500.02, -183762.52, -185470.72, -187500.02, -187500.02, 0.00, 0.00, 0.00
193, -187500.02, -187500.02, -187500.02, -187500.02, -183612.28, -185063.30, -187500.02, -187500.02, 0.00, 0.00, 0.00
194, -187500.02, -187500.02, -187500.02, -187500.02, -183718.28, -184781.58, -187500.02, -187500.02, 0.00, 0.00, 0.00
195, -187500.02, -187500.02, -187500.02, -187500.02, -183861.94, -185085.45, -187500.02, -187500.02, 0.00, 0.00, 0.00
196, -187500.02, -187500.02, -187500.02, -187500.02, -183734.50, -185475.70, -187500.02, -187500.02, 0.02, 0.91, 0.40
197, -187500.02, -187500.02, -187500.02, -187500.02, -183531.16, -185153.33, -187500.02, -187500.02, 0.00, 0.00, 0.00
198, -187500.02, -187500.02, -187500.02, -187500.02, -183605.06, -184795.97, -187500.02, -187500.02, 0.00, 0.00, 0.00
199, -187500.02, -187500.02, -187500.02, -187500.02, -183770.63, -184989.52, -187500.02, -187500.02, 0.00, 0.00, 0.00
200, -187500.02, -187500.02, -187500.02, -187500.02, -183691.59, -185449.16, -187500.02, -187500.02, 0.00, 0.00, 0.00
201, -187500.02, -187500.02, -187500.02, -187500.02, -183452.92, -185238.64, -187500.02, -187500.02, 0.00, 0.00, 0.00
202, -187500.02, -187500.02, -187500.02, -187500.02, -183485.13, -184825.83, -187500.02, -187500.02, 0.00, 0.00, 0.00
203, -187500.02, -187500.02, -187500.02, -187500.02, -183648.56, -184911.77, -187500.02, -187500.02, 0.00, 0.00, 0.00
204, -187500.02, -187500.02, -187500.02, -187500.02, -183611.11, -185415.47, -187500.02, -187500.02, 0.00, 0.00, 0.00
205, -187500.02, -187500.02, -187500.02, -187500.02, -183378.36, -185313.59, -187500.02, -187500.02, 0.00, 0.00, 0.00
206, -187500.02, -187500.02, -187500.02, -187500.02, -183387.03, -184846.47, -187500.02, -187500.02, 0.02, 0.91, 0.40
207, -187500.02, -187500.02, -187500.02, -187500.02, -183541.88, -184832.77, -187500.02, -187500.02, 0.00, 0.00, 0.00
208, -187500.02, -187500.02, -187500.02, -187500.02, -183536.00, -185371.73, -187500.02, -187500.02, 0.00, 0.00, 0.00
209, -187500.02, -187500.02, -187500.02, -187500.02, -183328.89, -185395.63, -187500.02, -187500.02, 0.00, 0.00, 0.00
210, -187500.02, -187500.02, -187500.02, -187500.02, -183342.44, -184863.41, -187500.02, -187500.02, 0.00, 0.00, 0.00
211, -187500.02, -187500.02, -187500.02, -187500.02, -183487.05, -184752.89, -187500.02, -187500.02, 0.00, 0.00, 0.00
212, -187500.02, -187500.02, -187500.02, -187500.02, -183471.92, -185308.14, -187500.02, -187500.02, 0.00, 0.00, 0.00
213, -187500.02, -187500.02, -187500.02, -187500.02, -183298.25, -185475.94, -187500.02, -187500.02, 0.00, 0.00, 0.00
214, -187500.02, -187500.02, -187500.02, -187500.02, -183343.70, -184880.84, -187500.02, -187500.02, 0.00, 0.00, 0.00
215, -187500.02, -187500.02, -187500.02, -187500.02, -183482.64, -184669.08, -187500.02, -187500.02, 0.00, 0.00, 0.00
216, -187500.02, -187500.02, -187500.02, -187500.02, -183443.73, -185222.95, -187500.02, -187500.02, 0.02, 0.91, 0.40
217, -187500.02, -187500.02, -187500.02, -187500.02, -183278.78, -185542.20, -187500.02, -187500.02, 0.00, 0.00, 0.00
218, -187500.02, -187500.02, -187500.02, -187500.02, -183343.00, -184927.64, -187500.02, -187500.02, 0.00, 0.00, 0.00
219, -187500.02, -187500.02, -187500.02, -187500.02, -183491.36, -184600.88, -187500.02, -187500.02, 0.00, 0.00, 0.00
220, -187500.02, -187500.02, -187500.02, -187500.02, -183447.56, -185097.03, -187500.02, -187500.02, 0.00, 0.00, 0.00
221, -187500.02, -187500.02, -187500.02, -187500.02, -183283.66, -185561.31, -187500.02, -187500.02, 0.00, 0.00, 0.00
222, -187500.02, -187500.02, -187500.02, -187500.02, -183361.17, -184981.63, -187500.02, -187500.02, 0.00, 0.00, 0.00
223, -187500.02, -187500.02, -187500.02, -187500.02, -183520.25, -184535.02, -187500.02, -187500.02, 0.00, 0.00, 0.00
224, -187500.02, -187500.02, -187500.02, -187500.02, -183477.63, -184936.42, -187500.02, -187500.02, 0.00, 0.00, 0.00
225, -187500.02, -187500.02, -187500.02, -187500.02, -183308.28, -185540.17, -187500.02, -187500.02, 0.00, 0.00, 0.00
226, -187500.02, -187500.02, -187500.02, -187500.02, -183371.16, -185056.95, -187500.02, -187500.02, 0.02, 0.91, 0.40
227, -187500.02, -187500.02, -187500.02, -187500.02, -183540.58, -184499.09, -187500.02, -187500.02, 0.00, 0.00, 0.00
228, -187500.02, -187500.02, -187500.02, -187500.02, -183520.27, -184775.94, -187500.02, -187500.02, 0.00, 0.00, 0.00
229, -187500.02, -187500.02, -187500.02, -187500.02, -183339.34, -185474.34, -187500.02, -187500.02, 0.00, 0.00, 0.00
230, -187500.02, -187500.02, -187500.02, -187500.02, -183369.48, -185155.42, -187500.02, -187500.02, 0.00, 0.00, 0.00
231, -187500.02, -187500.02, -187500.02, -187500.02, -183546.58, -184498.20, -187500.02, -187500.02, 0.00, 0.00, 0.00
232, -187500.02, -187500.02, -187500.02, -187500.02, -183545.70, -184624.53, -187500.02, -187500.02, 0.00, 0.00, 0.00
233, -187500.02, -187500.02, -187500.02, -187500.02, -183363.94, -185353.44, -187500.02, -187500.02, 0.00, 0.00, 0.00
234, -187500.02, -187500.02, -187500.02, -187500.02, -183329.69, -185252.61, -187500.02, -187500.02, 0.00, 0.00, 0.00
235, -187500.02, -187500.02, -187500.02, -187500.02, -183505.78, -184542.41, -187500.02, -187500.02, 0.00, 0.00, 0.00
236, -187500.02, -187500.02, -187500.02, -187500.02, -183556.88, -184502.77, -187500.02, -187500.02, 0.02, 0.91, 0.40
237, -187500.02, -187500.02, -187500.02, -187500.02, -183403.05, -185186.03, -187500.02, -187500.02, 0.00, 0.00, 0.00
238, -187500.02, -187500.02, -187500.02, -187500.02, -183305.00, -185309.50, -187500.02, -187500.02, 0.00, 0.00, 0.00
239, -187500.02, -187500.02, -187500.02, -187500.02, -183450.13, -184597.50, -187500.02, -187500.02, 0.00, 0.00, 0.00
240, -187500.02, -187500.02, -187500.02, -187500.02, -183538.08, -184389.14, -187500.02, -187500.02, 0.00, 0.00, 0.00
241, -187500.02, -187500.02, -187500.02, -187500.02, -183418.16, -184976.50, -187500.02, -187500.02, 0.00, 0.00, 0.00
242, -187500.02, -187500.02, -187500.02, -187500.02, -183275.72, -185267.92, -187500.02, -187500.02, 0.00, 0.00, 0.00
243, -187500.02, -187500.02, -187500.02, -187500.02, -183389.67, -184587.63, -187500.02, -187500.02, 0.00, 0.00, 0.00
244, -187500.02, -187500.02, -187500.02, -187500.02, -183518.36, -184231.47, -187500.02, -187500.02, 0.00, 0.00, 0.00
245, -187500.02, -187500.02, -187500.02, -187500.02, -183449.28, -184712.75, -187500.02, -187500.02, 0.00, 0.00, 0.00
246, -187500.02, -187500.02, -187500.02, -187500.02, -183284.88, -185217.77, -187500.02, -187500.02, 0.03, 0.91, 0.39
247, -187500.02, -187500.02, -187500.02, -187500.02, -183352.11, -184682.73, -187500.02, -187500.02, 0.00, 0.00, 0.00
248, -187500.02, -187500.02, -187500.02, -187500.02, -183497.02, -184220.41, -187500.02, -187500.02, 0.00, 0.00, 0.00
249, -187500.02, -187500.02, -187500.02, -187500.02, -183469.44, -184568.92, -187500.02, -187500.02, 0.00, 0.00, 0.00
250, -187500.02, -187500.02, -187500.02, -187500.02, -183294.27, -185178.31, -187500.02, -187500.02, 0.00, 0.00, 0.00
251, -187500.02, -187500.02, -187500.02, -187500.02, -183311.95, -184787.41, -187500.02, -187500.02, 0.00, 0.00, 0.00
252, -187500.02, -187500.02, -187500.02, -187500.02, -183469.19, -184222.64, -187500.02, -187500.02, 0.00, 0.00, 0.00
253, -187500.02, -187500.02, -187500.02, -187500.02, -183479.08, -184424.50, -187500.02, -187500.02, 0.00, 0.00, 0.00
254, -187500.02, -187500.02, -187500.02, -187500.02, -183309.25, -185100.72, -187500.02, -187500.02, 0.00, 0.00, 0.00
255, -187500.02, -187500.02, -187500.02, -187500.02, -183275.69, -184889.16, -187500.02, -187500.02, 0.00, 0.00, 0.00
0, -187500.02, -187500.02, -187500.02, -187500.02, -183430.91, -184254.00, -187500.02, -187500.02, 0.03, 0.91, 0.41
1, -187500.02, -187500.02, -187500.02, -187500.02, -183476.95, -184300.28, -187500.02, -187500.02, 0.00, 0.00, 0.00
2, -187500.02, -187500.02, -187500.02, -187500.02, -183321.61, -184986.34, -187500.02, -187500.02, 0.00, 0.00, 0.00
3, -187500.02, -187500.02, -187500.02, -187500.02, -183235.61, -184978.81, -187500.02, -187500.02, 0.00, 0.00, 0.00
4, -187500.02, -187500.02, -187500.02, -187500.02, -183380.25, -184304.59, -187500.02, -187500.02, 0.00, 0.00, 0.00
5, -187500.02, -187500.02, -187500.02, -187500.02, -183460.36, -184209.59, -187500.02, -187500.02, 0.00, 0.00, 0.00
6, -187500.02, -187500.02, -187500.02, -187500.02, -183340.61, -184854.59, -187500.02, -187500.02, 0.00, 0.00, 0.00
7, -187500.02, -187500.02, -187500.02, -187500.02, -183215.80, -185049.02, -187500.02, -187500.02, 0.00, 0.00, 0.00
8, -187500.02, -187500.02, -187500.02, -187500.02, -183336.52, -184386.17, -187500.02, -187500.02, 0.00, 0.00, 0.00
9, -187500.02, -187500.02, -187500.02, -187500.02, -183446.58, -184150.58, -187500.02, -187500.02, 0.00, 0.00, 0.00
10, -187500.02, -187500.02, -187500.02, -187500.02, -183358.55, -184711.39, -187500.02, -187500.02, 0.02, 0.91, 0.41
11, -187500.02, -187500.02, -187500.02, -187500.02, -183210.30, -185094.66, -187500.02, -187500.02, 0.00, 0.00, 0.00
12, -187500.02, -187500.02, -187500.02, -187500.02, -183307.19, -184490.78, -187500.02, -187500.02, 0.00, 0.00, 0.00
13, -187500.02, -187500.02, -187500.02, -187500.02, -183447.41, -184126.88, -187500.02, -187500.02, 0.00, 0.00, 0.00
14, -187500.02, -187500.02, -187500.02, -187500.02, -183387.08, -184569.45, -187500.02, -187500.02, 0.00, 0.00, 0.00
15, -187500.02, -187500.02, -187500.02, -187500.02, -183214.69, -185101.55, -187500.02, -187500.02, 0.00, 0.00, 0.00
16, -187500.02, -187500.02, -187500.02, -187500.02, -183280.31, -184589.63, -187500.02, -187500.02, 0.00, 0.00, 0.00
17, -187500.02, -187500.02, -187500.02, -187500.02, -183435.78, -184106.53, -187500.02, -187500.02, 0.00, 0.00, 0.00
18, -187500.02, -187500.02, -187500.02, -187500.02, -183403.19, -184423.20, -187500.02, -187500.02, 0.00, 0.00, 0.00
19, -187500.02, -187500.02, -187500.02, -187500.02, -183219.34, -185069.28, -187500.02, -187500.02, 0.02, 0.91, 0.41
20, -187500.02, -187500.02, -187500.02, -187500.02, -183249.09, -184704.34, -187500.02, -187500.02, 0.00, 0.00, 0.00
21, -187500.02, -187500.02, -187500.02, -187500.02, -183420.48, -184115.05, -187500.02, -187500.02, 0.00, 0.00, 0.00
22, -187500.02, -187500.02, -187500.02, -187500.02, -183408.39, -184314.72, -187500.02, -187500.02, 0.00, 0.00, 0.00
23, -187500.02, -187500.02, -187500.02, -187500.02, -183217.36, -185023.91, -187500.02, -187500.02, 0.00, 0.00, 0.00
24, -187500.02, -187500.02, -187500.02, -187500.02, -183215.09, -184834.59, -187500.02, -187500.02, 0.00, 0.00, 0.00
25, -187500.02, -187500.02, -187500.02, -187500.02, -183399.56, -184154.67, -187500.02, -187500.02, 0.00, 0.00, 0.00
26, -187500.02, -187500.02, -187500.02, -187500.02, -183412.89, -184204.25, -187500.02, -187500.02, 0.00, 0.00, 0.00
27, -187500.02, -187500.02, -187500.02, -187500.02, -183221.28, -184930.09, -187500.02, -187500.02, 0.00, 0.00, 0.00
28, -187500.02, -187500.02, -187500.02, -187500.02, -183185.97, -184923.33, -187500.02, -187500.02, 0.00, 0.00, 0.00
29, -187500.02, -187500.02, -187500.02, -187500.02, -183382.28, -184193.98, -187500.02, -187500.02, 0.02, 0.91, 0.40
30, -187500.02, -187500.02, -187500.02, -187500.02, -183422.00, -184108.63, -187500.02, -187500.02, 0.00, 0.00, 0.00
31, -187500.02, -187500.02, -187500.02, -187500.02, -183235.73, -184804.08, -187500.02, -187500.02, 0.00, 0.00, 0.00
32, -187500.02, -187500.02, -187500.02, -187500.02, -183155.70, -185009.70, -187500.02, -187500.02, 0.00, 0.00, 0.00
33, -187500.02, -187500.02, -187500.02, -187500.02, -183346.22, -184276.30, -187500.02, -187500.02, 0.00, 0.00, 0.00
34, -187500.02, -187500.02, -187500.02, -187500.02, -183417.81, -184043.92, -187500.02, -187500.02, 0.00, 0.00, 0.00
35, -187500.02, -187500.02, -187500.02, -187500.02, -183255.38, -184663.48, -187500.02, -187500.02, 0.00, 0.00, 0.00
36, -187500.02, -187500.02, -187500.02, -187500.02, -183129.20, -185065.78, -187500.02, -187500.02, 0.00, 0.00, 0.00
37, -187500.02, -187500.02, -187500.02, -187500.02, -183296.39, -184389.53, -187500.02, -187500.02, 0.00, 0.00, 0.00
38, -187500.02, -187500.02, -187500.02, -187500.02, -183406.77, -184007.69, -187500.02, -187500.02, 0.00, 0.00, 0.00
39, -187500.02, -187500.02, -187500.02, -187500.02, -183275.83, -184504.30, -187500.02, -187500.02, 0.02, 0.91, 0.40
40, -187500.02, -187500.02, -187500.02, -187500.02, -183112.45, -185072.55, -187500.02, -187500.02, 0.00, 0.00, 0.00
41, -187500.02, -187500.02, -187500.02, -187500.02, -183245.30, -184517.06, -187500.02, -187500.02, 0.00, 0.00, 0.00
42, -187500.02, -187500.02, -187500.02, -187500.02, -183387.19, -183996.52, -187500.02, -187500.02, 0.00, 0.00, 0.00
43, -187500.02, -187500.02, -187500.02, -187500.02, -183309.64, -184337.47, -187500.02, -187500.02, 0.00, 0.00, 0.00
44, -187500.02, -187500.02, -187500.02, -187500.02, -183120.39, -185016.63, -187500.02, -187500.02, 0.00, 0.00, 0.00
45, -187500.02, -187500.02, -187500.02, -187500.02, -183143.11, -184685.08, -187500.02, -187500.02, 0.00, 0.00, 0.00
46, -187500.02, -187500.02, -187500.02, -187500.02, -183311.48, -184062.34, -187500.02, -187500.02, 0.00, 0.00, 0.00
47, -187500.02, -187500.02, -187500.02, -187500.02, -183335.48, -184179.39, -187500.02, -187500.02, 0.00, 0.00, 0.00
48, -187500.02, -187500.02, -187500.02, -187500.02, -183170.13, -184881.16, -187500.02, -187500.02, 0.00, 0.00, 0.00
49, -187500.02, -187500.02, -187500.02, -187500.02, -183107.25, -184792.53, -187500.02, -187500.02, 0.01, 0.91, 0.39
50, -187500.02, -187500.02, -187500.02, -187500.02, -183252.16, -184131.63, -187500.02, -187500.02, 0.00, 0.00, 0.00
51, -187500.02, -187500.02, -187500.02, -187500.02, -183326.45, -184080.41, -187500.02, -187500.02, 0.00, 0.00, 0.00
52, -187500.02, -187500.02, -187500.02, -187500.02, -183213.91, -184729.06, -187500.02, -187500.02, 0.00, 0.00, 0.00
53, -187500.02, -187500.02, -187500.02, -187500.02, -183089.22, -184879.77, -187500.02, -187500.02, 0.00, 0.00, 0.00
54, -187500.02, -187500.02, -187500.02, -187500.02, -183186.13, -184237.94, -187500.02, -187500.02, 0.00, 0.00, 0.00
55, -187500.02, -187500.02, -187500.02, -187500.02, -183298.41, -184039.88, -187500.02, -187500.02, 0.00, 0.00, 0.00
56, -187500.02, -187500.02, -187500.02, -187500.02, -183241.16, -184591.67, -187500.02, -187500.02, 0.00, 0.00, 0.00
57, -187500.02, -187500.02, -187500.02, -187500.02, -183086.39, -184926.91, -187500.02, -187500.02, 0.00, 0.00, 0.00
58, -187500.02, -187500.02, -187500.02, -187500.02, -183121.48, -184354.97, -187500.02, -187500.02, 0.00, 0.00, 0.00
59, -187500.02, -187500.02, -187500.02, -187500.02, -183253.66, -184014.69, -187500.02, -187500.02, 0.02, 0.91, 0.39
60, -187500.02, -187500.02, -187500.02, -187500.02, -183252.69, -184447.86, -187500.02, -187500.02, 0.00, 0.00, 0.00
61, -187500.02, -187500.02, -187500.02, -187500.02, -183101.94, -184916.28, -187500.02, -187500.02, 0.00, 0.00, 0.00
62, -187500.02, -187500.02, -187500.02, -187500.02, -183087.00, -184450.66, -187500.02, -187500.02, 0.00, 0.00, 0.00
63, -187500.02, -187500.02, -187500.02, -187500.02, -183217.38, -184010.66, -187500.02, -187500.02, 0.00, 0.00, 0.00
64, -187500.02, -187500.02, -187500.02, -187500.02, -183254.70, -184302.47, -187500.02, -187500.02, 0.00, 0.00, 0.00
65, -187500.02, -187500.02, -187500.02, -187500.02, -183112.77, -184883.39, -187500.02, -187500.02, 0.00, 0.00, 0.00
66, -187500.02, -187500.02, -187500.02, -187500.02, -183055.48, -184546.92, -187500.02, -187500.02, 0.00, 0.00, 0.00
67, -187500.02, -187500.02, -187500.02, -187500.02, -183177.91, -184024.83, -187500.02, -187500.02, 0.00, 0.00, 0.00
68, -187500.02, -187500.02, -187500.02, -187500.02, -183238.66, -184186.73, -187500.02, -187500.02, 0.00, 0.00, 0.00
69, -187500.02, -187500.02, -187500.02, -187500.02, -183122.47, -184817.53, -187500.02, -187500.02, 0.01, 0.91, 0.40
70, -187500.02, -187500.02, -187500.02, -187500.02, -183038.41, -184650.61, -187500.02, -187500.02, 0.00, 0.00, 0.00
71, -187500.02, -187500.02, -187500.02, -187500.02, -183150.81, -184053.95, -187500.02, -187500.02, 0.00, 0.00, 0.00
72, -187500.02, -187500.02, -187500.02, -187500.02, -183232.47, -184086.88, -187500.02, -187500.02, 0.00, 0.00, 0.00
73, -187500.02, -187500.02, -187500.02, -187500.02, -183137.05, -184730.67, -187500.02, -187500.02, 0.00, 0.00, 0.00
74, -187500.02, -187500.02, -187500.02, -187500.02, -183031.09, -184737.11, -187500.02, -187500.02, 0.00, 0.00, 0.00
75, -187500.02, -187500.02, -187500.02, -187500.02, -183134.52, -184096.88, -187500.02, -187500.02, 0.00, 0.00, 0.00
76, -187500.02, -187500.02, -187500.02, -187500.02, -183231.22, -183993.25, -187500.02, -187500.02, 0.00, 0.00, 0.00
77, -187500.02, -187500.02, -187500.02, -187500.02, -183146.64, -184618.67, -187500.02, -187500.02, 0.00, 0.00, 0.00
78, -187500.02, -187500.02, -187500.02, -187500.02, -183021.20, -184806.03, -187500.02, -187500.02, 0.00, 0.00, 0.00
79, -187500.02, -187500.02, -187500.02, -187500.02, -183119.70, -184152.55, -187500.02, -187500.02, 0.01, 0.91, 0.40
80, -187500.02, -187500.02, -187500.02, -187500.02, -183228.34, -183924.50, -187500.02, -187500.02, 0.00, 0.00, 0.00
81, -187500.02, -187500.02, -187500.02, -187500.02, -183155.69, -184480.36, -187500.02, -187500.02, 0.00, 0.00, 0.00
82, -187500.02, -187500.02, -187500.02, -187500.02, -183017.28, -184848.50, -187500.02, -187500.02, 0.00, 0.00, 0.00
83, -187500.02, -187500.02, -187500.02, -187500.02, -183108.14, -184239.50, -187500.02, -187500.02, 0.00, 0.00, 0.00
84, -187500.02, -187500.02, -187500.02, -187500.02, -183237.83, -183885.30, -187500.02, -187500.02, 0.00, 0.00, 0.00
85, -187500.02, -187500.02, -187500.02, -187500.02, -183185.66, -184346.14, -187500.02, -187500.02, 0.00, 0.00, 0.00
86, -187500.02, -187500.02, -187500.02, -187500.02, -183031.67, -184860.70, -187500.02, -187500.02, 0.00, 0.00, 0.00
87, -187500.02, -187500.02, -187500.02, -187500.02, -183096.39, -184349.52, -187500.02, -187500.02, 0.00, 0.00, 0.00
88, -187500.02, -187500.02, -187500.02, -187500.02, -183247.23, -183874.92, -187500.02, -187500.02, 0.00, 0.00, 0.00
89, -187500.02, -187500.02, -187500.02, -187500.02, -183226.97, -184208.30, -187500.02, -187500.02, 0.01, 0.91, 0.39
90, -187500.02, -187500.02, -187500.02, -187500.02, -183065.50, -184833.98, -187500.02, -187500.02, 0.00, 0.00, 0.00
91, -187500.02, -187500.02, -187500.02, -187500.02, -183102.17, -184456.27, -187500.02, -187500.02, 0.00, 0.00, 0.00
92, -187500.02, -187500.02, -187500.02, -187500.02, -183265.98, -183881.27, -187500.02, -187500.02, 0.00, 0.00, 0.00
93, -187500.02, -187500.02, -187500.02, -187500.02, -183268.14, -184067.53, -187500.02, -187500.02, 0.00, 0.00, 0.00
94, -187500.02, -187500.02, -187500.02, -187500.02, -183096.13, -184759.67, -187500.02, -187500.02, 0.00, 0.00, 0.00
95, -187500.02, -187500.02, -187500.02, -187500.02, -183089.39, -184557.77, -187500.02, -187500.02, 0.00, 0.00, 0.00
96, -187500.02, -187500.02, -187500.02, -187500.02, -183270.95, -183912.47, -187500.02, -187500.02, 0.00, 0.00, 0.00
97, -187500.02, -187500.02, -187500.02, -187500.02, -183305.39, -183968.13, -187500.02, -187500.02, 0.00, 0.00, 0.00
98, -187500.02, -187500.02, -187500.02, -187500.02, -183126.19, -184671.17, -187500.02, -187500.02, 0.01, 0.91, 0.39
99, -187500.02, -187500.02, -187500.02, -187500.02, -183070.44, -184668.45, -187500.02, -187500.02, 0.00, 0.00, 0.00
100, -187500.02, -187500.02, -187500.02, -187500.02, -183255.52, -183976.95, -187500.02, -187500.02, 0.00, 0.00, 0.00
101, -187500.02, -187500.02, -187500.02, -187500.02, -183319.39, -183892.64, -187500.02, -187500.02, 0.00, 0.00, 0.00
102, -187500.02, -187500.02, -187500.02, -187500.02, -183157.16, -184552.78, -187500.02, -187500.02, 0.00, 0.00, 0.00
103, -187500.02, -187500.02, -187500.02, -187500.02, -183047.53, -184762.39, -187500.02, -187500.02, 0.00, 0.00, 0.00
104, -187500.02, -187500.02, -187500.02, -187500.02, -183214.27, -184079.89, -187500.02, -187500.02, 0.00, 0.00, 0.00
105, -187500.02, -187500.02, -187500.02, -187500.02, -183313.58, -183839.27, -187500.02, -187500.02, 0.00, 0.00, 0.00
106, -187500.02, -187500.02, -187500.02, -187500.02, -183174.08, -184412.64, -187500.02, -187500.02, 0.00, 0.00, 0.00
107, -187500.02, -187500.02, -187500.02, -187500.02, -183015.31, -184802.56, -187500.02, -187500.02, 0.00, 0.00, 0.00
108, -187500.02, -187500.02, -187500.02, -187500.02, -183148.22, -184181.88, -187500.02, -187500.02, 0.01, 0.91, 0.40
109, -187500.02, -187500.02, -187500.02, -187500.02, -183284.16, -183807.42, -187500.02, -187500.02, 0.00, 0.00, 0.00
110, -187500.02, -187500.02, -187500.02, -187500.02, -183190.38, -184262.98, -187500.02, -187500.02, 0.00, 0.00, 0.00
111, -187500.02, -187500.02, -187500.02, -187500.02, -183004.36, -184814.95, -187500.02, -187500.02, 0.00, 0.00, 0.00
112, -187500.02, -187500.02, -187500.02, -187500.02, -183095.41, -184301.28, -187500.02, -187500.02, 0.00, 0.00, 0.00
113, -187500.02, -187500.02, -187500.02, -187500.02, -183252.17, -183808.33, -187500.02, -187500.02, 0.00, 0.00, 0.00
114, -187500.02, -187500.02, -187500.02, -187500.02, -183196.66, -184128.75, -187500.02, -187500.02, 0.00, 0.00, 0.00
115, -187500.02, -187500.02, -187500.02, -187500.02, -183006.67, -184789.59, -187500.02, -187500.02, 0.00, 0.00, 0.00
116, -187500.02, -187500.02, -187500.02, -187500.02, -183049.05, -184435.34, -187500.02, -187500.02, 0.00, 0.00, 0.00
117, -187500.02, -187500.02, -187500.02, -187500.02, -183219.80, -183824.97, -187500.02, -187500.02, 0.00, 0.00, 0.00
118, -187500.02, -187500.02, -187500.02, -187500.02, -183198.31, -184011.83, -187500.02, -187500.02, 0.02, 0.91, 0.40
119, -187500.02, -187500.02, -187500.02, -187500.02, -183003.69, -184732.53, -187500.02, -187500.02, 0.00, 0.00, 0.00
120, -187500.02, -187500.02, -187500.02, -187500.02, -183017.98, -184543.17, -187500.02, -187500.02, 0.00, 0.00, 0.00
121, -187500.02, -187500.02, -187500.02, -187500.02, -183204.14, -183848.92, -187500.02, -187500.02, 0.00, 0.00, 0.00
122, -187500.02, -187500.02, -187500.02, -187500.02, -183208.33, -183899.80, -187500.02, -187500.02, 0.00, 0.00, 0.00
123, -187500.02, -187500.02, -187500.02, -187500.02, -183013.02, -184636.47, -187500.02, -187500.02, 0.00, 0.00, 0.00
124, -187500.02, -187500.02, -187500.02, -187500.02, -182987.58, -184654.86, -187500.02, -187500.02, 0.00, 0.00, 0.00
125, -187500.02, -187500.02, -187500.02, -187500.02, -183183.52, -183917.34, -187500.02, -187500.02, 0.00, 0.00, 0.00
126, -187500.02, -187500.02, -187500.02, -187500.02, -183219.77, -183811.84, -187500.02, -187500.02, 0.00, 0.00, 0.00
127, -187500.02, -187500.02, -187500.02, -187500.02, -183038.09, -184501.11, -187500.02, -187500.02, 0.00, 0.00, 0.00
128, -187500.02, -187500.02, -187500.02, -187500.02, -182957.42, -184740.45, -187500.02, -187500.02, 0.02, 0.90, 0.39
129, -187500.02, -187500.02, -187500.02, -187500.02, -183149.56, -184010.34, -187500.02, -187500.02, 0.00, 0.00, 0.00
130, -187500.02, -187500.02, -187500.02, -187500.02, -183229.22, -183757.59, -187500.02, -187500.02, 0.00, 0.00, 0.00
131, -187500.02, -187500.02, -187500.02, -187500.02, -183074.89, -184358.09, -187500.02, -187500.02, 0.00, 0.00, 0.00
132, -187500.02, -187500.02, -187500.02, -187500.02, -182940.17, -184794.41, -187500.02, -187500.02, 0.00, 0.00, 0.00
133, -187500.02, -187500.02, -187500.02, -187500.02, -183102.95, -184136.72, -187500.02, -187500.02, 0.00, 0.00, 0.00
134, -187500.02, -187500.02, -187500.02, -187500.02, -183220.80, -183731.59, -187500.02, -187500.02, 0.00, 0.00, 0.00
135, -187500.02, -187500.02, -187500.02, -187500.02, -183101.27, -184204.66, -187500.02, -187500.02, 0.00, 0.00, 0.00
136, -187500.02, -187500.02, -187500.02, -187500.02, -182931.67, -184794.88, -187500.02, -187500.02, 0.00, 0.00, 0.00
137, -187500.02, -187500.02, -187500.02, -187500.02, -183055.08, -184271.78, -187500.02, -187500.02, 0.00, 0.00, 0.00
138, -187500.02, -187500.02, -187500.02, -187500.02, -183211.16, -183739.80, -187500.02, -187500.02, 0.02, 0.90, 0.40
139, -187500.02, -187500.02, -187500.02, -187500.02, -183144.06, -184051.28, -187500.02, -187500.02, 0.00, 0.00, 0.00
140, -187500.02, -187500.02, -187500.02, -187500.02, -182946.81, -184743.91, -187500.02, -187500.02, 0.00, 0.00, 0.00
141, -187500.02, -187500.02, -187500.02, -187500.02, -183004.36, -184400.97, -187500.02, -187500.02, 0.00, 0.00, 0.00
142, -187500.02, -187500.02, -187500.02, -187500.02, -183183.89, -183767.47, -187500.02, -187500.02, 0.00, 0.00, 0.00
143, -187500.02, -187500.02, -187500.02, -187500.02, -183169.55, -183911.75, -187500.02, -187500.02, 0.00, 0.00, 0.00
144, -187500.02, -187500.02, -187500.02, -187500.02, -182969.61, -184634.66, -187500.02, -187500.02, 0.00, 0.00, 0.00
145, -187500.02, -187500.02, -187500.02, -187500.02, -182950.45, -184527.23, -187500.02, -187500.02, 0.00, 0.00, 0.00
146, -187500.02, -187500.02, -187500.02, -187500.02, -183141.42, -183835.81, -187500.02, -187500.02, 0.00, 0.00, 0.00
147, -187500.02, -187500.02, -187500.02, -187500.02, -183176.77, -183817.61, -187500.02, -187500.02, 0.00, 0.00, 0.00
148, -187500.02, -187500.02, -187500.02, -187500.02, -182995.80, -184512.39, -187500.02, -187500.02, 0.01, 0.91, 0.40
149, -187500.02, -187500.02, -187500.02, -187500.02, -182916.59, -184628.47, -187500.02, -187500.02, 0.00, 0.00, 0.00
150, -187500.02, -187500.02, -187500.02, -187500.02, -183100.64, -183927.16, -187500.02, -187500.02, 0.00, 0.00, 0.00
151, -187500.02, -187500.02, -187500.02, -187500.02, -183184.13, -183754.59, -187500.02, -187500.02, 0.00, 0.00, 0.00
152, -187500.02, -187500.02, -187500.02, -187500.02, -183036.31, -184374.61, -187500.02, -187500.02, 0.00, 0.00, 0.00
153, -187500.02, -187500.02, -187500.02, -187500.02, -182900.94, -184694.45, -187500.02, -187500.02, 0.00, 0.00, 0.00
154, -187500.02, -187500.02, -187500.02, -187500.02, -183060.38, -184026.95, -187500.02, -187500.02, 0.00, 0.00, 0.00
155, -187500.02, -187500.02, -187500.02, -187500.02, -183178.38, -183710.84, -187500.02, -187500.02, 0.00, 0.00, 0.00
156, -187500.02, -187500.02, -187500.02, -187500.02, -183064.58, -184221.19, -187500.02, -187500.02, 0.00, 0.00, 0.00
157, -187500.02, -187500.02, -187500.02, -187500.02, -182894.58, -184720.22, -187500.02, -187500.02, 0.00, 0.00, 0.00
158, -187500.02, -187500.02, -187500.02, -187500.02, -183014.67, -184158.14, -187500.02, -187500.02, 0.02, 0.91, 0.40
159, -187500.02, -187500.02, -187500.02, -187500.02, -183167.89, -183705.67, -187500.02, -187500.02, 0.00, 0.00, 0.00
160, -187500.02, -187500.02, -187500.02, -187500.02, -183094.52, -184086.92, -187500.02, -187500.02, 0.00, 0.00, 0.00
161, -187500.02, -187500.02, -187500.02, -187500.02, -182896.30, -184700.34, -187500.02, -187500.02, 0.00, 0.00, 0.00
162, -187500.02, -187500.02, -187500.02, -187500.02, -182955.64, -184299.98, -187500.02, -187500.02, 0.00, 0.00, 0.00
163, -187500.02, -187500.02, -187500.02, -187500.02, -183139.89, -183742.98, -187500.02, -187500.02, 0.00, 0.00, 0.00
164, -187500.02, -187500.02, -187500.02, -187500.02, -183131.20, -183959.34, -187500.02, -187500.02, 0.00, 0.00, 0.00
165, -187500.02, -187500.02, -187500.02, -187500.02, -182935.48, -184634.80, -187500.02, -187500.02, 0.00, 0.00, 0.00
166, -187500.02, -187500.02, -187500.02, -187500.02, -182925.17, -184418.06, -187500.02, -187500.02, 0.00, 0.00, 0.00
167, -187500.02, -187500.02, -187500.02, -187500.02, -183109.38, -183785.22, -187500.02, -187500.02, 0.00, 0.00, 0.00
168, -187500.02, -187500.02, -187500.02, -187500.02, -183139.14, -183845.81, -187500.02, -187500.02, 0.02, 0.91, 0.40
169, -187500.02, -187500.02, -187500.02, -187500.02, -182954.41, -184533.33, -187500.02, -187500.02, 0.00, 0.00, 0.00
170, -187500.02, -187500.02, -187500.02, -187500.02, -182892.19, -184517.00, -187500.02, -187500.02, 0.00, 0.00, 0.00
171, -187500.02, -187500.02, -187500.02, -187500.02, -183075.33, -183840.09, -187500.02, -187500.02, 0.00, 0.00, 0.00
172, -187500.02, -187500.02, -187500.02, -187500.02, -183143.50, -183762.06, -187500.02, -187500.02, 0.00, 0.00, 0.00
173, -187500.02, -187500.02, -187500.02, -187500.02, -182977.50, -184419.47, -187500.02, -187500.02, 0.00, 0.00, 0.00
174, -187500.02, -187500.02, -187500.02, -187500.02, -182869.98, -184606.61, -187500.02, -187500.02, 0.00, 0.00, 0.00
175, -187500.02, -187500.02, -187500.02, -187500.02, -183047.13, -183921.91, -187500.02, -187500.02, 0.00, 0.00, 0.00
176, -187500.02, -187500.02, -187500.02, -187500.02, -183142.55, -183700.63, -187500.02, -187500.02, 0.00, 0.00, 0.00
177, -187500.02, -187500.02, -187500.02, -187500.02, -182998.36, -184294.53, -187500.02, -187500.02, 0.00, 0.00, 0.00
178, -187500.02, -187500.02, -187500.02, -187500.02, -182855.06, -184669.70, -187500.02, -187500.02, 0.02, 0.91, 0.40
179, -187500.02, -187500.02, -187500.02, -187500.02, -183017.03, -184020.55, -187500.02, -187500.02, 0.00, 0.00, 0.00
180, -187500.02, -187500.02, -187500.02, -187500.02, -183143.06, -183666.11, -187500.02, -187500.02, 0.00, 0.00, 0.00
181, -187500.02, -187500.02, -187500.02, -187500.02, -183017.02, -184162.44, -187500.02, -187500.02, 0.00, 0.00, 0.00
182, -187500.02, -187500.02, -187500.02, -187500.02, -182842.88, -184693.84, -187500.02, -187500.02, 0.00, 0.00, 0.00
183, -187500.02, -187500.02, -187500.02, -187500.02, -182984.69, -184133.53, -187500.02, -187500.02, 0.00, 0.00, 0.00
184, -187500.02, -187500.02, -187500.02, -187500.02, -183136.98, -183655.81, -187500.02, -187500.02, 0.00, 0.00, 0.00
185, -187500.02, -187500.02, -187500.02, -187500.02, -183038.36, -184026.84, -187500.02, -187500.02, 0.00, 0.00, 0.00
186, -187500.02, -187500.02, -187500.02, -187500.02, -182837.22, -184680.14, -187500.02, -187500.02, 0.00, 0.00, 0.00
187, -187500.02, -187500.02, -187500.02, -187500.02, -182935.98, -184265.92, -187500.02, -187500.02, 0.01, 0.91, 0.40
188, -187500.02, -187500.02, -187500.02, -187500.02, -183112.22, -183675.05, -187500.02, -187500.02, 0.00, 0.00, 0.00
189, -187500.02, -187500.02, -187500.02, -187500.02, -183052.75, -183899.69, -187500.02, -187500.02, 0.00, 0.00, 0.00
190, -187500.02, -187500.02, -187500.02, -187500.02, -182836.23, -184614.66, -187500.02, -187500.02, 0.00, 0.00, 0.00
191, -187500.02, -187500.02, -187500.02, -187500.02, -182879.94, -184392.19, -187500.02, -187500.02, 0.00, 0.00, 0.00
192, -187500.02, -187500.02, -187500.02, -187500.02, -183077.02, -183715.39, -187500.02, -187500.02, 0.00, 0.00, 0.00
193, -187500.02, -187500.02, -187500.02, -187500.02, -183060.69, -183781.00, -187500.02, -187500.02, 0.00, 0.00, 0.00
194, -187500.02, -187500.02, -187500.02, -187500.02, -182847.64, -184506.48, -187500.02, -187500.02, 0.00, 0.00, 0.00
195, -187500.02, -187500.02, -187500.02, -187500.02, -182829.31, -184498.44, -187500.02, -187500.02, 0.00, 0.00, 0.00
196, -187500.02, -187500.02, -187500.02, -187500.02, -183038.25, -183781.17, -187500.02, -187500.02, 0.00, 0.00, 0.00
197, -187500.02, -187500.02, -187500.02, -187500.02, -183070.44, -183693.52, -187500.02, -187500.02, 0.02, 0.91, 0.40
198, -187500.02, -187500.02, -187500.02, -187500.02, -182876.53, -184375.63, -187500.02, -187500.02, 0.00, 0.00, 0.00
199, -187500.02, -187500.02, -187500.02, -187500.02, -182793.70, -184588.23, -187500.02, -187500.02, 0.00, 0.00, 0.00
200, -187500.02, -187500.02, -187500.02, -187500.02, -182994.78, -183870.83, -187500.02, -187500.02, 0.00, 0.00, 0.00
201, -187500.02, -187500.02, -187500.02, -187500.02, -183074.14, -183639.16, -187500.02, -187500.02, 0.00, 0.00, 0.00
202, -187500.02, -187500.02, -187500.02, -187500.02, -182910.58, -184238.73, -187500.02, -187500.02, 0.00, 0.00, 0.00
203, -187500.02, -187500.02, -187500.02, -187500.02, -182776.94, -184649.41, -187500.02, -187500.02, 0.00, 0.00, 0.00
204, -187500.02, -187500.02, -187500.02, -187500.02, -182957.11, -183991.86, -187500.02, -187500.02, 0.00, 0.00, 0.00
205, -187500.02, -187500.02, -187500.02, -187500.02, -183078.30, -183612.06, -187500.02, -187500.02, 0.00, 0.00, 0.00
206, -187500.02, -187500.02, -187500.02, -187500.02, -182946.25, -184091.02, -187500.02, -187500.02, 0.00, 0.00, 0.00
207, -187500.02, -187500.02, -187500.02, -187500.02, -182769.36, -184660.39, -187500.02, -187500.02, 0.02, 0.91, 0.40
208, -187500.02, -187500.02, -187500.02, -187500.02, -182914.88, -184119.52, -187500.02, -187500.02, 0.00, 0.00, 0.00
209, -187500.02, -187500.02, -187500.02, -187500.02, -183071.31, -183611.53, -187500.02, -187500.02, 0.00, 0.00, 0.00
210, -187500.02, -187500.02, -187500.02, -187500.02, -182979.31, -183949.78, -187500.02, -187500.02, 0.00, 0.00, 0.00
211, -187500.02, -187500.02, -187500.02, -187500.02, -182774.66, -184631.30, -187500.02, -187500.02, 0.00, 0.00, 0.00
212, -187500.02, -187500.02, -187500.02, -187500.02, -182871.66, -184257.42, -187500.02, -187500.02, 0.00, 0.00, 0.00
213, -187500.02, -187500.02, -187500.02, -187500.02, -183058.09, -183644.34, -187500.02, -187500.02, 0.00, 0.00, 0.00
214, -187500.02, -187500.02, -187500.02, -187500.02, -183009.06, -183837.34, -187500.02, -187500.02, 0.00, 0.00, 0.00
215, -187500.02, -187500.02, -187500.02, -187500.02, -182789.92, -184563.28, -187500.02, -187500.02, 0.00, 0.00, 0.00
216, -187500.02, -187500.02, -187500.02, -187500.02, -182822.36, -184391.53, -187500.02, -187500.02, 0.00, 0.00, 0.00
217, -187500.02, -187500.02, -187500.02, -187500.02, -183032.34, -183697.67, -187500.02, -187500.02, 0.02, 0.91, 0.40
218, -187500.02, -187500.02, -187500.02, -187500.02, -183028.48, -183735.78, -187500.02, -187500.02, 0.00, 0.00, 0.00
219, -187500.02, -187500.02, -187500.02, -187500.02, -182813.69, -184458.09, -187500.02, -187500.02, 0.00, 0.00, 0.00
220, -187500.02, -187500.02, -187500.02, -187500.02, -182781.58, -184496.98, -187500.02, -187500.02, 0.00, 0.00, 0.00
221, -187500.02, -187500.02, -187500.02, -187500.02, -182995.88, -183766.52, -187500.02, -187500.02, 0.00, 0.00, 0.00
222, -187500.02, -187500.02, -187500.02, -187500.02, -183037.11, -183643.89, -187500.02, -187500.02, 0.00, 0.00, 0.00
223, -187500.02, -187500.02, -187500.02, -187500.02, -182837.63, -184309.73, -187500.02, -187500.02, 0.00, 0.00, 0.00
224, -187500.02, -187500.02, -187500.02, -187500.02, -182747.36, -184572.83, -187500.02, -187500.02, 0.00, 0.00, 0.00
225, -187500.02, -187500.02, -187500.02, -187500.02, -182955.70, -183863.36, -187500.02, -187500.02, 0.00, 0.00, 0.00
226, -187500.02, -187500.02, -187500.02, -187500.02, -183043.03, -183591.92, -187500.02, -187500.02, 0.00, 0.00, 0.00
227, -187500.02, -187500.02, -187500.02, -187500.02, -182876.94, -184163.66, -187500.02, -187500.02, 0.02, 0.91, 0.40
228, -187500.02, -187500.02, -187500.02, -187500.02, -182729.23, -184620.73, -187500.02, -187500.02, 0.00, 0.00, 0.00
229, -187500.02, -187500.02, -187500.02, -187500.02, -182914.91, -183987.84, -187500.02, -187500.02, 0.00, 0.00, 0.00
230, -187500.02, -187500.02, -187500.02, -187500.02, -183045.05, -183572.34, -187500.02, -187500.02, 0.00, 0.00, 0.00
231, -187500.02, -187500.02, -187500.02, -187500.02, -182911.06, -184018.03, -187500.02, -187500.02, 0.00, 0.00, 0.00
232, -187500.02, -187500.02, -187500.02, -187500.02, -182720.63, -184621.48, -187500.02, -187500.02, 0.00, 0.00, 0.00
233, -187500.02, -187500.02, -187500.02, -187500.02, -182862.23, -184125.33, -187500.02, -187500.02, 0.00, 0.00, 0.00
234, -187500.02, -187500.02, -187500.02, -187500.02, -183032.48, -183579.98, -187500.02, -187500.02, 0.00, 0.00, 0.00
235, -187500.02, -187500.02, -187500.02, -187500.02, -182942.41, -183887.14, -187500.02, -187500.02, 0.00, 0.00, 0.00
236, -187500.02, -187500.02, -187500.02, -187500.02, -182724.75, -184579.33, -187500.02, -187500.02, 0.00, 0.00, 0.00
237, -187500.02, -187500.02, -187500.02, -187500.02, -182812.20, -184256.13, -187500.02, -187500.02, 0.02, 0.91, 0.39
238, -187500.02, -187500.02, -187500.02, -187500.02, -183016.33, -183618.48, -187500.02, -187500.02, 0.00, 0.00, 0.00
239, -187500.02, -187500.02, -187500.02, -187500.02, -182976.97, -183762.58, -187500.02, -187500.02, 0.00, 0.00, 0.00
240, -187500.02, -187500.02, -187500.02, -187500.02, -182750.20, -184489.64, -187500.02, -187500.02, 0.00, 0.00, 0.00
241, -187500.02, -187500.02, -187500.02, -187500.02, -182764.31, -184379.58, -187500.02, -187500.02, 0.00, 0.00, 0.00
242, -187500.02, -187500.02, -187500.02, -187500.02, -182985.91, -183676.89, -187500.02, -187500.02, 0.00, 0.00, 0.00
243, -187500.02, -187500.02, -187500.02, -187500.02, -183006.38, -183663.14, -187500.02, -187500.02, 0.00, 0.00, 0.00
244, -187500.02, -187500.02, -187500.02, -187500.02, -182793.14, -184361.20, -187500.02, -187500.02, 0.00, 0.00, 0.00
245, -187500.02, -187500.02, -187500.02, -187500.02, -182730.63, -184483.17, -187500.02, -187500.02, 0.00, 0.00, 0.00
246, -187500.02, -187500.02, -187500.02, -187500.02, -182953.45, -183772.73, -187500.02, -187500.02, 0.00, 0.00, 0.00
247, -187500.02, -187500.02, -187500.02, -187500.02, -183032.59, -183594.00, -187500.02, -187500.02, 0.02, 0.90, 0.40
248, -187500.02, -187500.02, -187500.02, -187500.02, -182858.25, -184203.98, -187500.02, -187500.02, 0.00, 0.00, 0.00
249, -187500.02, -187500.02, -187500.02, -187500.02, -182720.08, -184545.23, -187500.02, -187500.02, 0.00, 0.00, 0.00
250, -187500.02, -187500.02, -187500.02, -187500.02, -182910.58, -183884.75, -187500.02, -187500.02, 0.00, 0.00, 0.00
