%OpenBCI Raw EEG Data
%
%Sample Rate = 250.0 Hz
%First Column = SampleIndex
%Other Columns = EEG data in microvolts followed by Accel Data (in G) interleaved with Aux Data
0, -148754.67, -175949.80, -167514.77, -175541.45, -187500.02, -187500.02, -171691.92, -187500.02, 0.02, 0.90, 0.42
1, -148733.28, -175925.83, -167510.36, -175724.17, -187500.02, -187500.02, -171901.84, -187500.02, 0.00, 0.00, 0.00
2, -148788.14, -176044.61, -167496.97, -176031.72, -187500.02, -187500.02, -172250.19, -187500.02, 0.00, 0.00, 0.00
3, -148786.77, -176053.80, -167461.52, -175823.44, -187500.02, -187500.02, -172000.28, -187500.02, 0.00, 0.00, 0.00
4, -148702.17, -175915.28, -167434.44, -175539.13, -187500.02, -187500.02, -171692.64, -187500.02, 0.00, 0.00, 0.00
5, -148664.59, -175860.95, -167424.91, -175649.30, -187500.02, -187500.02, -171825.81, -187500.02, 0.00, 0.00, 0.00
6, -148720.05, -175971.95, -167413.47, -175992.84, -187500.02, -187500.02, -172217.48, -187500.02, 0.00, 0.00, 0.00
7, -148739.05, -176021.13, -167368.94, -175881.28, -187500.02, -187500.02, -172077.14, -187500.02, 0.02, 0.90, 0.42
8, -148649.84, -175882.94, -167327.61, -175550.89, -187500.02, -187500.02, -171711.75, -187500.02, 0.00, 0.00, 0.00
9, -148586.66, -175784.80, -167315.23, -175586.73, -187500.02, -187500.02, -171769.33, -187500.02, 0.00, 0.00, 0.00
10, -148623.06, -175859.25, -167310.13, -175929.20, -187500.02, -187500.02, -172168.03, -187500.02, 0.00, 0.00, 0.00
11, -148677.81, -175994.83, -167262.14, -175930.95, -187500.02, -187500.02, -172142.48, -187500.02, 0.00, 0.00, 0.00
12, -148607.52, -175913.13, -167202.02, -175585.39, -187500.02, -187500.02, -171741.14, -187500.02, 0.00, 0.00, 0.00
13, -148456.17, -175622.52, -167202.52, -175498.92, -187500.02, -187500.02, -171713.09, -187500.02, 0.00, 0.00, 0.00
14, -148284.73, -175220.95, -167260.69, -175715.48, -187500.02, -187500.02, -172108.25, -187500.02, 0.00, 0.00, 0.00
15, -148553.28, -175876.42, -167159.86, -175946.75, -187500.02, -187500.02, -172191.63, -187500.02, 0.00, 0.00, 0.00
16, -148893.89, -176753.92, -166980.89, -175835.33, -187500.02, -187500.02, -171767.98, -187500.02, 0.00, 0.00, 0.00
17, -148589.97, -176106.17, -167004.72, -175587.08, -187500.02, -187500.02, -171675.09, -187500.02, 0.02, 0.89, 0.42
18, -147807.86, -174363.61, -167213.44, -175433.22, -187500.02, -187500.02, -172056.06, -187500.02, 0.00, 0.00, 0.00
19, -147802.94, -174546.53, -167181.81, -175641.92, -187500.02, -187500.02, -172260.33, -187500.02, 0.00, 0.00, 0.00
20, -148930.72, -177360.44, -166795.91, -176035.45, -187500.02, -187500.02, -171820.00, -187500.02, 0.00, 0.00, 0.00
21, -149291.70, -178233.61, -166666.16, -176085.22, -187500.02, -187500.02, -171619.08, -187500.02, 0.00, 0.00, 0.00
22, -148098.36, -175436.98, -167010.03, -175611.19, -187500.02, -187500.02, -171966.42, -187500.02, 0.00, 0.00, 0.00
23, -146823.11, -172539.41, -167358.75, -175140.78, -187500.02, -187500.02, -172326.69, -187500.02, 0.00, 0.00, 0.00
24, -148059.16, -175415.91, -166995.83, -175619.45, -187500.02, -187500.02, -171931.33, -187500.02, 0.00, 0.00, 0.00
25, -149260.20, -178133.55, -166684.38, -176073.83, -187500.02, -187500.02, -171612.89, -187500.02, 0.00, 0.00, 0.00
26, -148380.13, -176089.63, -166966.94, -175725.03, -187500.02, -187500.02, -171878.14, -187500.02, 0.02, 0.90, 0.42
27, -146765.17, -172457.27, -167426.11, -175125.11, -187500.02, -187500.02, -172333.03, -187500.02, 0.00, 0.00, 0.00
28, -147598.83, -174533.20, -167171.75, -175470.42, -187500.02, -187500.02, -172034.23, -187500.02, 0.00, 0.00, 0.00
29, -149036.95, -177887.17, -166796.94, -176030.08, -187500.02, -187500.02, -171627.39, -187500.02, 0.00, 0.00, 0.00
30, -148521.95, -176701.84, -167003.67, -175830.28, -187500.02, -187500.02, -171798.39, -187500.02, 0.00, 0.00, 0.00
31, -146736.09, -172715.72, -167539.33, -175168.27, -187500.02, -187500.02, -172308.94, -187500.02, 0.00, 0.00, 0.00
32, -147114.19, -173744.64, -167436.02, -175342.56, -187500.02, -187500.02, -172146.27, -187500.02, 0.00, 0.00, 0.00
33, -148748.08, -177504.66, -167015.17, -175970.22, -187500.02, -187500.02, -171667.97, -187500.02, 0.00, 0.00, 0.00
34, -148626.83, -177186.81, -167137.42, -175916.52, -187500.02, -187500.02, -171736.30, -187500.02, 0.00, 0.00, 0.00
35, -146861.33, -173219.86, -167727.86, -175263.78, -187500.02, -187500.02, -172275.22, -187500.02, 0.00, 0.00, 0.00
36, -146718.97, -173065.02, -167805.98, -175246.19, -187500.02, -187500.02, -172278.81, -187500.02, 0.02, 0.90, 0.42
37, -148422.28, -177003.64, -167363.75, -175897.88, -187500.02, -187500.02, -171748.78, -187500.02, 0.00, 0.00, 0.00
38, -148687.38, -177559.95, -167403.27, -175988.80, -187500.02, -187500.02, -171709.16, -187500.02, 0.00, 0.00, 0.00
39, -147098.50, -173932.64, -168041.03, -175400.53, -187500.02, -187500.02, -172250.45, -187500.02, 0.00, 0.00, 0.00
40, -146511.25, -172712.69, -168324.08, -175213.69, -187500.02, -187500.02, -172432.28, -187500.02, 0.00, 0.00, 0.00
41, -148164.80, -176504.98, -167894.47, -175833.14, -187500.02, -187500.02, -171879.03, -187500.02, 0.00, 0.00, 0.00
42, -148816.44, -177899.78, -167834.34, -176063.44, -187500.02, -187500.02, -171710.05, -187500.02, 0.00, 0.00, 0.00
43, -147426.63, -174819.17, -168479.47, -175572.36, -187500.02, -187500.02, -172211.61, -187500.02, 0.00, 0.00, 0.00
44, -146392.67, -172647.78, -168985.38, -175238.44, -187500.02, -187500.02, -172575.63, -187500.02, 0.00, 0.00, 0.00
45, -147845.42, -176039.56, -168637.94, -175790.86, -187500.02, -187500.02, -172053.86, -187500.02, 0.00, 0.00, 0.00
46, -148808.80, -178199.97, -168510.78, -176144.08, -187500.02, -187500.02, -171765.70, -187500.02, 0.02, 0.90, 0.41
47, -147766.80, -175847.81, -169109.81, -175776.06, -187500.02, -187500.02, -172198.22, -187500.02, 0.00, 0.00, 0.00
48, -146449.56, -172952.47, -169770.52, -175340.63, -187500.02, -187500.02, -172726.03, -187500.02, 0.00, 0.00, 0.00
49, -147626.27, -175650.66, -169485.38, -175769.84, -187500.02, -187500.02, -172286.55, -187500.02, 0.00, 0.00, 0.00
50, -148881.86, -178393.80, -169180.33, -176194.13, -187500.02, -187500.02, -171861.80, -187500.02, 0.00, 0.00, 0.00
51, -148246.84, -176725.98, -169593.50, -175941.50, -187500.02, -187500.02, -172189.11, -187500.02, 0.00, 0.00, 0.00
52, -146847.98, -173209.67, -170291.52, -175417.77, -187500.02, -187500.02, -172828.38, -187500.02, 0.00, 0.00, 0.00
53, -147714.16, -174846.73, -170085.27, -175662.84, -187500.02, -187500.02, -172524.44, -187500.02, 0.00, 0.00, 0.00
54, -149297.00, -178036.59, -169613.30, -176153.84, -187500.02, -187500.02, -171988.91, -187500.02, 0.00, 0.00, 0.00
55, -149076.77, -177210.09, -169847.72, -176078.00, -187500.02, -187500.02, -172211.20, -187500.02, 0.00, 0.00, 0.00
56, -147587.20, -173740.86, -170554.05, -175620.25, -187500.02, -187500.02, -172951.38, -187500.02, 0.03, 0.90, 0.41
57, -148052.19, -174680.27, -170520.47, -175808.22, -187500.02, -187500.02, -172873.13, -187500.02, 0.00, 0.00, 0.00
58, -149878.83, -178391.41, -170011.72, -176382.81, -187500.02, -187500.02, -172282.09, -187500.02, 0.00, 0.00, 0.00
59, -150162.33, -178528.23, -170190.78, -176416.25, -187500.02, -187500.02, -172401.86, -187500.02, 0.00, 0.00, 0.00
60, -148878.23, -175301.81, -171037.36, -175974.41, -187500.02, -187500.02, -173211.39, -187500.02, 0.00, 0.00, 0.00
61, -148960.17, -175256.20, -171286.39, -175997.14, -187500.02, -187500.02, -173379.33, -187500.02, 0.00, 0.00, 0.00
62, -150852.83, -179095.48, -170785.58, -176565.45, -187500.02, -187500.02, -172741.72, -187500.02, 0.00, 0.00, 0.00
63, -151453.83, -180030.17, -170836.55, -176718.89, -187500.02, -187500.02, -172704.14, -187500.02, 0.00, 0.00, 0.00
64, -150242.13, -177096.16, -171639.02, -176330.42, -187500.02, -187500.02, -173445.44, -187500.02, 0.00, 0.00, 0.00
65, -149750.31, -175857.94, -172062.97, -176178.25, -187500.02, -187500.02, -173778.80, -187500.02, 0.00, 0.00, 0.00
66, -151334.67, -179187.27, -171487.92, -176621.44, -187500.02, -187500.02, -173028.41, -187500.02, 0.03, 0.90, 0.41
67, -152035.75, -180547.66, -171314.30, -176794.14, -187500.02, -187500.02, -172736.84, -187500.02, 0.00, 0.00, 0.00
68, -150923.94, -177974.66, -171994.64, -176451.11, -187500.02, -187500.02, -173368.42, -187500.02, 0.00, 0.00, 0.00
69, -149974.20, -175819.08, -172562.59, -176174.00, -187500.02, -187500.02, -173902.22, -187500.02, 0.00, 0.00, 0.00
70, -151337.44, -178641.66, -172019.47, -176534.16, -187500.02, -187500.02, -173215.31, -187500.02, 0.00, 0.00, 0.00
71, -152311.53, -180594.16, -171630.86, -176774.16, -187500.02, -187500.02, -172746.33, -187500.02, 0.00, 0.00, 0.00
72, -151411.61, -178565.05, -172114.11, -176505.59, -187500.02, -187500.02, -173255.89, -187500.02, 0.00, 0.00, 0.00
73, -150094.19, -175756.08, -172749.78, -176152.95, -187500.02, -187500.02, -173979.98, -187500.02, 0.00, 0.00, 0.00
74, -151126.95, -177945.81, -172288.27, -176437.02, -187500.02, -187500.02, -173456.61, -187500.02, 0.00, 0.00, 0.00
75, -152328.00, -180449.11, -171764.83, -176743.38, -187500.02, -187500.02, -172849.59, -187500.02, 0.00, 0.00, 0.00
76, -151709.16, -179098.28, -172116.67, -176564.52, -187500.02, -187500.02, -173253.89, -187500.02, 0.03, 0.91, 0.41
77, -150173.25, -175884.66, -172880.88, -176166.11, -187500.02, -187500.02, -174151.42, -187500.02, 0.00, 0.00, 0.00
78, -150840.47, -177246.02, -172628.48, -176342.27, -187500.02, -187500.02, -173901.28, -187500.02, 0.00, 0.00, 0.00
79, -152312.25, -180211.31, -171998.77, -176709.47, -187500.02, -187500.02, -173242.36, -187500.02, 0.00, 0.00, 0.00
80, -152038.70, -179563.27, -172159.44, -176619.48, -187500.02, -187500.02, -173484.36, -187500.02, 0.00, 0.00, 0.00
81, -150416.73, -176218.38, -172903.66, -176206.75, -187500.02, -187500.02, -174422.03, -187500.02, 0.00, 0.00, 0.00
82, -150616.13, -176611.00, -172830.56, -176252.59, -187500.02, -187500.02, -174402.03, -187500.02, 0.00, 0.00, 0.00
83, -152250.44, -179872.39, -172131.31, -176639.28, -187500.02, -187500.02, -173658.08, -187500.02, 0.00, 0.00, 0.00
84, -152298.98, -179928.78, -172120.08, -176631.95, -187500.02, -187500.02, -173716.13, -187500.02, 0.00, 0.00, 0.00
85, -150669.84, -176665.19, -172827.44, -176229.73, -187500.02, -187500.02, -174615.42, -187500.02, 0.00, 0.00, 0.00
86, -150350.03, -176051.36, -172954.27, -176153.52, -187500.02, -187500.02, -174815.73, -187500.02, 0.03, 0.90, 0.41
87, -152013.63, -179339.39, -172252.45, -176536.13, -187500.02, -187500.02, -173977.56, -187500.02, 0.00, 0.00, 0.00
88, -152419.30, -180111.64, -172094.19, -176614.06, -187500.02, -187500.02, -173768.22, -187500.02, 0.00, 0.00, 0.00
89, -150923.48, -177163.19, -172738.77, -176256.08, -187500.02, -187500.02, -174513.00, -187500.02, 0.00, 0.00, 0.00
90, -150118.92, -175603.20, -173083.13, -176068.48, -187500.02, -187500.02, -174900.67, -187500.02, 0.00, 0.00, 0.00
91, -151732.73, -178707.28, -172445.25, -176424.41, -187500.02, -187500.02, -174060.77, -187500.02, 0.00, 0.00, 0.00
92, -152506.97, -180147.92, -172139.50, -176578.13, -187500.02, -187500.02, -173668.25, -187500.02, 0.00, 0.00, 0.00
93, -151251.20, -177696.23, -172655.42, -176282.14, -187500.02, -187500.02, -174303.92, -187500.02, 0.00, 0.00, 0.00
94, -150023.14, -175350.88, -173138.78, -176007.28, -187500.02, -187500.02, -174916.78, -187500.02, 0.00, 0.00, 0.00
95, -151406.48, -177994.89, -172575.73, -176303.48, -187500.02, -187500.02, -174191.08, -187500.02, 0.00, 0.00, 0.00
96, -152509.72, -180081.50, -172124.11, -176528.27, -187500.02, -187500.02, -173621.03, -187500.02, 0.04, 0.90, 0.42
97, -151543.95, -178232.22, -172511.98, -176303.30, -187500.02, -187500.02, -174104.17, -187500.02, 0.00, 0.00, 0.00
98, -149989.86, -175303.39, -173112.11, -175966.09, -187500.02, -187500.02, -174881.03, -187500.02, 0.00, 0.00, 0.00
99, -151025.75, -177269.36, -172698.98, -176183.17, -187500.02, -187500.02, -174328.63, -187500.02, 0.00, 0.00, 0.00
100, -152422.63, -179887.70, -172143.25, -176464.56, -187500.02, -187500.02, -173606.97, -187500.02, 0.00, 0.00, 0.00
101, -151811.52, -178717.09, -172388.41, -176322.48, -187500.02, -187500.02, -173919.47, -187500.02, 0.00, 0.00, 0.00
102, -150070.55, -175464.61, -173053.09, -175953.58, -187500.02, -187500.02, -174799.11, -187500.02, 0.00, 0.00, 0.00
103, -150647.27, -176561.25, -172822.75, -176072.70, -187500.02, -187500.02, -174477.98, -187500.02, 0.00, 0.00, 0.00
104, -152282.36, -179599.33, -172195.08, -176402.47, -187500.02, -187500.02, -173635.70, -187500.02, 0.00, 0.00, 0.00
105, -152044.52, -179126.67, -172293.95, -176338.41, -187500.02, -187500.02, -173763.08, -187500.02, 0.03, 0.89, 0.41
106, -150257.20, -175810.48, -172965.81, -175964.39, -187500.02, -187500.02, -174670.58, -187500.02, 0.00, 0.00, 0.00
107, -150318.98, -175942.02, -172937.50, -175980.52, -187500.02, -187500.02, -174622.53, -187500.02, 0.00, 0.00, 0.00
108, -152091.44, -179207.00, -172279.27, -176338.67, -187500.02, -187500.02, -173711.97, -187500.02, 0.00, 0.00, 0.00
109, -152249.22, -179468.28, -172226.42, -176356.89, -187500.02, -187500.02, -173636.33, -187500.02, 0.00, 0.00, 0.00
110, -150547.36, -176322.59, -172856.00, -176001.78, -187500.02, -187500.02, -174503.69, -187500.02, 0.00, 0.00, 0.00
111, -150079.22, -175474.20, -173014.86, -175905.41, -187500.02, -187500.02, -174724.67, -187500.02, 0.00, 0.00, 0.00
112, -151850.53, -178717.66, -172361.66, -176252.48, -187500.02, -187500.02, -173799.11, -187500.02, 0.00, 0.00, 0.00
113, -152389.42, -179684.06, -172164.02, -176345.84, -187500.02, -187500.02, -173521.38, -187500.02, 0.00, 0.00, 0.00
114, -150872.89, -176902.11, -172719.13, -176033.11, -187500.02, -187500.02, -174297.53, -187500.02, 0.00, 0.00, 0.00
115, -149922.36, -175178.03, -173051.52, -175843.83, -187500.02, -187500.02, -174771.45, -187500.02, 0.03, 0.91, 0.42
116, -151565.92, -178168.16, -172463.53, -176167.28, -187500.02, -187500.02, -173911.56, -187500.02, 0.00, 0.00, 0.00
117, -152490.19, -179821.86, -172138.64, -176339.66, -187500.02, -187500.02, -173442.83, -187500.02, 0.00, 0.00, 0.00
118, -151262.09, -177568.11, -172584.92, -176087.91, -187500.02, -187500.02, -174077.48, -187500.02, 0.00, 0.00, 0.00
119, -149892.45, -175094.55, -173057.25, -175816.73, -187500.02, -187500.02, -174771.72, -187500.02, 0.00, 0.00, 0.00
120, -151267.53, -177595.31, -172569.31, -176081.30, -187500.02, -187500.02, -174039.38, -187500.02, 0.00, 0.00, 0.00
121, -152511.53, -179831.33, -172132.36, -176313.86, -187500.02, -187500.02, -173393.78, -187500.02, 0.00, 0.00, 0.00
122, -151621.67, -178202.27, -172452.67, -176129.77, -187500.02, -187500.02, -173853.63, -187500.02, 0.00, 0.00, 0.00
123, -149955.92, -175200.92, -173017.11, -175801.73, -187500.02, -187500.02, -174703.17, -187500.02, 0.00, 0.00, 0.00
124, -150925.55, -176955.05, -172674.03, -175985.73, -187500.02, -187500.02, -174179.03, -187500.02, 0.00, 0.00, 0.00
125, -152453.63, -179692.02, -172142.48, -176266.63, -187500.02, -187500.02, -173379.09, -187500.02, 0.03, 0.90, 0.43
126, -151923.34, -178724.34, -172327.34, -176148.27, -187500.02, -187500.02, -173648.44, -187500.02, 0.00, 0.00, 0.00
127, -150107.09, -175466.75, -172939.31, -175794.20, -187500.02, -187500.02, -174583.09, -187500.02, 0.00, 0.00, 0.00
128, -150579.47, -176323.77, -172774.03, -175886.78, -187500.02, -187500.02, -174321.58, -187500.02, 0.00, 0.00, 0.00
129, -152319.22, -179430.13, -172185.73, -176211.84, -187500.02, -187500.02, -173412.38, -187500.02, 0.00, 0.00, 0.00
130, -152178.47, -179157.25, -172236.48, -176170.13, -187500.02, -187500.02, -173485.52, -187500.02, 0.00, 0.00, 0.00
131, -150354.56, -175894.23, -172841.52, -175814.41, -187500.02, -187500.02, -174427.47, -187500.02, 0.00, 0.00, 0.00
132, -150269.36, -175757.77, -172858.34, -175797.33, -187500.02, -187500.02, -174451.92, -187500.02, 0.00, 0.00, 0.00
133, -152095.25, -179023.23, -172241.53, -176136.97, -187500.02, -187500.02, -173483.70, -187500.02, 0.00, 0.00, 0.00
134, -152352.22, -179486.52, -172120.66, -176175.77, -187500.02, -187500.02, -173346.98, -187500.02, 0.00, 0.00, 0.00
135, -150643.13, -176459.70, -172630.50, -175852.50, -187500.02, -187500.02, -174243.38, -187500.02, 0.04, 0.90, 0.43
136, -150033.16, -175399.44, -172810.98, -175739.59, -187500.02, -187500.02, -174550.59, -187500.02, 0.00, 0.00, 0.00
137, -151819.17, -178574.14, -172258.20, -176066.05, -187500.02, -187500.02, -173598.61, -187500.02, 0.00, 0.00, 0.00
138, -152475.92, -179725.50, -172055.03, -176170.05, -187500.02, -187500.02, -173248.88, -187500.02, 0.00, 0.00, 0.00
139, -150988.69, -177082.30, -172516.28, -175876.50, -187500.02, -187500.02, -174022.66, -187500.02, 0.00, 0.00, 0.00
140, -149890.72, -175145.16, -172846.86, -175669.19, -187500.02, -187500.02, -174589.47, -187500.02, 0.00, 0.00, 0.00
141, -151494.80, -178000.34, -172336.33, -175961.89, -187500.02, -187500.02, -173727.08, -187500.02, 0.00, 0.00, 0.00
142, -152517.33, -179792.91, -172018.95, -176140.69, -187500.02, -187500.02, -173189.14, -187500.02, 0.00, 0.00, 0.00
143, -151339.20, -177690.81, -172392.58, -175913.52, -187500.02, -187500.02, -173808.14, -187500.02, 0.00, 0.00, 0.00
144, -149851.05, -175076.77, -172838.69, -175636.14, -187500.02, -187500.02, -174575.33, -187500.02, 0.00, 0.00, 0.00
145, -151122.13, -177358.05, -172430.02, -175873.11, -187500.02, -187500.02, -173884.61, -187500.02, 0.03, 0.90, 0.42
146, -152466.20, -179749.61, -172008.11, -176115.56, -187500.02, -187500.02, -173171.41, -187500.02, 0.00, 0.00, 0.00
147, -151641.63, -178291.03, -172270.34, -175953.78, -187500.02, -187500.02, -173603.58, -187500.02, 0.00, 0.00, 0.00
148, -149899.22, -175221.22, -172812.38, -175629.83, -187500.02, -187500.02, -174512.89, -187500.02, 0.00, 0.00, 0.00
149, -150747.69, -176742.48, -172547.39, -175788.70, -187500.02, -187500.02, -174046.86, -187500.02, 0.00, 0.00, 0.00
150, -152354.09, -179578.36, -172038.73, -176075.23, -187500.02, -187500.02, -173190.81, -187500.02, 0.00, 0.00, 0.00
151, -151921.84, -178804.14, -172168.48, -175981.56, -187500.02, -187500.02, -173415.69, -187500.02, 0.00, 0.00, 0.00
152, -150069.81, -175537.14, -172732.75, -175634.06, -187500.02, -187500.02, -174387.67, -187500.02, 0.00, 0.00, 0.00
153, -150391.72, -176122.84, -172622.00, -175693.98, -187500.02, -187500.02, -174199.91, -187500.02, 0.00, 0.00, 0.00
154, -152181.05, -179276.67, -172065.00, -176015.94, -187500.02, -187500.02, -173246.47, -187500.02, 0.00, 0.00, 0.00
155, -152148.19, -179199.00, -172078.56, -175997.77, -187500.02, -187500.02, -173268.42, -187500.02, 0.02, 0.90, 0.42
156, -150323.95, -175983.73, -172631.77, -175652.83, -187500.02, -187500.02, -174225.56, -187500.02, 0.00, 0.00, 0.00
157, -150094.27, -175597.67, -172687.25, -175608.23, -187500.02, -187500.02, -174325.50, -187500.02, 0.00, 0.00, 0.00
158, -151942.33, -178855.41, -172119.36, -175941.77, -187500.02, -187500.02, -173333.91, -187500.02, 0.00, 0.00, 0.00
159, -152317.14, -179500.81, -172004.67, -175997.56, -187500.02, -187500.02, -173136.97, -187500.02, 0.00, 0.00, 0.00
160, -150651.61, -176558.08, -172510.36, -175682.42, -187500.02, -187500.02, -174016.48, -187500.02, 0.00, 0.00, 0.00
161, -149894.64, -175235.53, -172730.61, -175545.66, -187500.02, -187500.02, -174408.33, -187500.02, 0.00, 0.00, 0.00
162, -151671.11, -178364.72, -172192.16, -175866.88, -187500.02, -187500.02, -173452.84, -187500.02, 0.00, 0.00, 0.00
163, -152430.94, -179687.52, -171963.72, -175996.20, -187500.02, -187500.02, -173050.17, -187500.02, 0.00, 0.00, 0.00
164, -151016.14, -177194.91, -172387.69, -175726.64, -187500.02, -187500.02, -173794.84, -187500.02, 0.00, 0.00, 0.00
165, -149787.84, -175046.42, -172742.59, -175499.86, -187500.02, -187500.02, -174435.20, -187500.02, 0.01, 0.90, 0.41
166, -151347.48, -177789.88, -172270.56, -175784.33, -187500.02, -187500.02, -173591.02, -187500.02, 0.00, 0.00, 0.00
167, -152471.86, -179749.13, -171935.69, -175982.23, -187500.02, -187500.02, -172994.72, -187500.02, 0.00, 0.00, 0.00
168, -151385.77, -177833.02, -172267.13, -175776.28, -187500.02, -187500.02, -173574.91, -187500.02, 0.00, 0.00, 0.00
169, -149801.52, -175061.97, -172727.23, -175484.70, -187500.02, -187500.02, -174407.39, -187500.02, 0.00, 0.00, 0.00
170, -151005.44, -177178.19, -172361.02, -175703.61, -187500.02, -187500.02, -173750.09, -187500.02, 0.00, 0.00, 0.00
171, -152455.16, -179703.42, -171928.61, -175960.34, -187500.02, -187500.02, -172977.38, -187500.02, 0.00, 0.00, 0.00
172, -151731.91, -178425.61, -172144.45, -175816.94, -187500.02, -187500.02, -173361.63, -187500.02, 0.00, 0.00, 0.00
173, -149923.53, -175267.16, -172670.22, -175486.42, -187500.02, -187500.02, -174319.75, -187500.02, 0.00, 0.00, 0.00
174, -150653.03, -176562.77, -172444.23, -175621.03, -187500.02, -187500.02, -173913.36, -187500.02, 0.00, 0.00, 0.00
175, -152356.17, -179529.47, -171939.05, -175925.09, -187500.02, -187500.02, -173000.64, -187500.02, 0.02, 0.90, 0.41
176, -152029.30, -178942.31, -172038.47, -175855.20, -187500.02, -187500.02, -173177.08, -187500.02, 0.00, 0.00, 0.00
177, -150143.84, -175651.05, -172584.61, -175506.52, -187500.02, -187500.02, -174179.69, -187500.02, 0.00, 0.00, 0.00
178, -150319.88, -175978.27, -172515.05, -175539.86, -187500.02, -187500.02, -174065.48, -187500.02, 0.00, 0.00, 0.00
179, -152173.98, -179218.16, -171963.63, -175873.56, -187500.02, -187500.02, -173066.52, -187500.02, 0.00, 0.00, 0.00
180, -152256.95, -179347.94, -171942.33, -175879.97, -187500.02, -187500.02, -173029.31, -187500.02, 0.00, 0.00, 0.00
181, -150436.22, -176167.69, -172473.08, -175543.94, -187500.02, -187500.02, -174004.70, -187500.02, 0.00, 0.00, 0.00
182, -150053.42, -175523.64, -172563.50, -175472.72, -187500.02, -187500.02, -174188.61, -187500.02, 0.00, 0.00, 0.00
183, -151924.72, -178797.83, -172005.19, -175809.77, -187500.02, -187500.02, -173173.83, -187500.02, 0.00, 0.00, 0.00
184, -152410.02, -179631.55, -171861.97, -175888.58, -187500.02, -187500.02, -172921.34, -187500.02, 0.00, 0.00, 0.00
185, -150776.25, -176772.86, -172339.97, -175582.95, -187500.02, -187500.02, -173801.50, -187500.02, 0.02, 0.89, 0.42
186, -149858.34, -175192.47, -172588.98, -175415.39, -187500.02, -187500.02, -174278.94, -187500.02, 0.00, 0.00, 0.00
187, -151606.98, -178260.44, -172063.45, -175729.50, -187500.02, -187500.02, -173321.19, -187500.02, 0.00, 0.00, 0.00
188, -152472.73, -179762.80, -171800.89, -175876.42, -187500.02, -187500.02, -172855.84, -187500.02, 0.00, 0.00, 0.00
189, -151116.08, -177391.13, -172196.30, -175621.63, -187500.02, -187500.02, -173589.50, -187500.02, 0.00, 0.00, 0.00
190, -149751.59, -175026.88, -172574.61, -175371.02, -187500.02, -187500.02, -174311.91, -187500.02, 0.00, 0.00, 0.00
191, -151228.66, -177623.20, -172130.83, -175642.39, -187500.02, -187500.02, -173503.58, -187500.02, 0.00, 0.00, 0.00
192, -152452.34, -179754.67, -171767.72, -175859.81, -187500.02, -187500.02, -172849.14, -187500.02, 0.00, 0.00, 0.00
193, -151425.13, -177960.45, -172065.89, -175664.08, -187500.02, -187500.02, -173402.53, -187500.02, 0.00, 0.00, 0.00
194, -149749.11, -175055.02, -172533.98, -175354.17, -187500.02, -187500.02, -174290.05, -187500.02, 0.02, 0.90, 0.42
195, -150815.27, -176932.69, -172203.73, -175547.05, -187500.02, -187500.02, -173696.50, -187500.02, 0.00, 0.00, 0.00
196, -152358.17, -179618.59, -171741.45, -175821.52, -187500.02, -187500.02, -172863.69, -187500.02, 0.00, 0.00, 0.00
197, -151717.05, -178493.33, -171928.89, -175697.38, -187500.02, -187500.02, -173214.55, -187500.02, 0.00, 0.00, 0.00
198, -149862.31, -175275.94, -172453.92, -175355.95, -187500.02, -187500.02, -174202.20, -187500.02, 0.00, 0.00, 0.00
199, -150438.45, -176309.58, -172266.88, -175462.47, -187500.02, -187500.02, -173870.66, -187500.02, 0.00, 0.00, 0.00
200, -152205.14, -179389.33, -171738.22, -175777.84, -187500.02, -187500.02, -172910.70, -187500.02, 0.00, 0.00, 0.00
201, -151984.02, -178990.81, -171797.38, -175727.02, -187500.02, -187500.02, -173029.09, -187500.02, 0.00, 0.00, 0.00
202, -150095.94, -175700.44, -172341.73, -175380.86, -187500.02, -187500.02, -174045.41, -187500.02, 0.00, 0.00, 0.00
203, -150129.67, -175780.53, -172313.61, -175390.75, -187500.02, -187500.02, -174009.63, -187500.02, 0.00, 0.00, 0.00
204, -152010.28, -179067.11, -171751.48, -175731.02, -187500.02, -187500.02, -172984.48, -187500.02, 0.02, 0.90, 0.42
205, -152199.42, -179385.81, -171692.61, -175756.95, -187500.02, -187500.02, -172883.45, -187500.02, 0.00, 0.00, 0.00
206, -150406.67, -176263.38, -172210.28, -175424.58, -187500.02, -187500.02, -173843.86, -187500.02, 0.00, 0.00, 0.00
207, -149877.94, -175358.97, -172344.45, -175330.03, -187500.02, -187500.02, -174109.98, -187500.02, 0.00, 0.00, 0.00
208, -151744.48, -178615.78, -171785.06, -175670.69, -187500.02, -187500.02, -173089.73, -187500.02, 0.00, 0.00, 0.00
209, -152349.31, -179655.88, -171605.00, -175776.06, -187500.02, -187500.02, -172769.45, -187500.02, 0.00, 0.00, 0.00
210, -150762.11, -176888.28, -172065.47, -175478.89, -187500.02, -187500.02, -173620.77, -187500.02, 0.00, 0.00, 0.00
211, -149737.48, -175119.41, -172349.98, -175294.13, -187500.02, -187500.02, -174157.59, -187500.02, 0.00, 0.00, 0.00
212, -151451.53, -178109.44, -171839.25, -175608.64, -187500.02, -187500.02, -173215.73, -187500.02, 0.00, 0.00, 0.00
213, -152477.25, -179871.36, -171538.33, -175790.56, -187500.02, -187500.02, -172665.56, -187500.02, 0.00, 0.00, 0.00
214, -151219.73, -177662.45, -171916.52, -175556.03, -187500.02, -187500.02, -173353.67, -187500.02, 0.02, 0.90, 0.41
215, -149789.14, -175173.09, -172325.69, -175294.91, -187500.02, -187500.02, -174119.77, -187500.02, 0.00, 0.00, 0.00
216, -151211.47, -177662.41, -171890.47, -175556.66, -187500.02, -187500.02, -173323.84, -187500.02, 0.00, 0.00, 0.00
217, -152558.45, -179999.80, -171478.38, -175794.92, -187500.02, -187500.02, -172579.02, -187500.02, 0.00, 0.00, 0.00
218, -151668.89, -178436.89, -171749.17, -175628.88, -187500.02, -187500.02, -173068.48, -187500.02, 0.00, 0.00, 0.00
219, -149935.45, -175420.03, -172257.67, -175314.81, -187500.02, -187500.02, -174012.75, -187500.02, 0.00, 0.00, 0.00
220, -150931.38, -177162.41, -171944.23, -175498.19, -187500.02, -187500.02, -173445.48, -187500.02, 0.00, 0.00, 0.00
221, -152558.16, -179986.05, -171442.09, -175788.66, -187500.02, -187500.02, -172540.34, -187500.02, 0.00, 0.00, 0.00
222, -152037.77, -179069.86, -171592.64, -175683.50, -187500.02, -187500.02, -172819.77, -187500.02, 0.00, 0.00, 0.00
223, -150155.80, -175796.89, -172148.66, -175338.91, -187500.02, -187500.02, -173848.00, -187500.02, 0.00, 0.00, 0.00
224, -150599.88, -176590.78, -171995.75, -175423.75, -187500.02, -187500.02, -173577.81, -187500.02, 0.03, 0.91, 0.42
225, -152438.22, -179786.88, -171427.34, -175756.55, -187500.02, -187500.02, -172546.88, -187500.02, 0.00, 0.00, 0.00
226, -152309.59, -179547.63, -171460.38, -175724.61, -187500.02, -187500.02, -172615.28, -187500.02, 0.00, 0.00, 0.00
227, -150430.13, -176276.28, -172017.36, -175374.17, -187500.02, -187500.02, -173647.55, -187500.02, 0.00, 0.00, 0.00
228, -150313.67, -176096.73, -172027.05, -175352.20, -187500.02, -187500.02, -173680.95, -187500.02, 0.00, 0.00, 0.00
229, -152226.94, -179437.16, -171428.98, -175699.25, -187500.02, -187500.02, -172590.42, -187500.02, 0.00, 0.00, 0.00
230, -152557.63, -179997.45, -171322.42, -175751.02, -187500.02, -187500.02, -172399.84, -187500.02, 0.00, 0.00, 0.00
231, -150803.02, -176936.38, -171854.36, -175425.73, -187500.02, -187500.02, -173379.14, -187500.02, 0.00, 0.00, 0.00
232, -150140.73, -175799.02, -172035.09, -175305.48, -187500.02, -187500.02, -173728.64, -187500.02, 0.00, 0.00, 0.00
233, -151999.20, -179046.44, -171447.03, -175642.58, -187500.02, -187500.02, -172656.17, -187500.02, 0.00, 0.00, 0.00
234, -152703.11, -180269.03, -171216.34, -175760.34, -187500.02, -187500.02, -172245.22, -187500.02, 0.02, 0.90, 0.42
235, -151179.30, -177616.92, -171678.36, -175472.81, -187500.02, -187500.02, -173097.45, -187500.02, 0.00, 0.00, 0.00
236, -150002.47, -175587.19, -172018.69, -175257.19, -187500.02, -187500.02, -173741.88, -187500.02, 0.00, 0.00, 0.00
237, -151652.89, -178472.23, -171495.25, -175556.83, -187500.02, -187500.02, -172780.34, -187500.02, 0.00, 0.00, 0.00
238, -152749.72, -180370.48, -171146.05, -175748.23, -187500.02, -187500.02, -172148.53, -187500.02, 0.00, 0.00, 0.00
239, -151531.09, -178247.20, -171516.73, -175516.27, -187500.02, -187500.02, -172839.64, -187500.02, 0.00, 0.00, 0.00
240, -149968.84, -175542.23, -171980.17, -175229.05, -187500.02, -187500.02, -173717.50, -187500.02, 0.00, 0.00, 0.00
241, -151266.91, -177822.92, -171566.67, -175466.78, -187500.02, -187500.02, -172952.56, -187500.02, 0.00, 0.00, 0.00
242, -152703.84, -180320.72, -171115.73, -175722.17, -187500.02, -187500.02, -172123.20, -187500.02, 0.00, 0.00, 0.00
243, -151861.64, -178852.69, -171371.17, -175557.33, -187500.02, -187500.02, -172603.61, -187500.02, 0.00, 0.00, 0.00
244, -150036.84, -175692.63, -171915.69, -175219.67, -187500.02, -187500.02, -173640.66, -187500.02, 0.02, 0.90, 0.42
245, -150877.25, -177168.91, -171647.72, -175375.33, -187500.02, -187500.02, -173146.83, -187500.02, 0.00, 0.00, 0.00
246, -152582.41, -180130.06, -171119.52, -175681.17, -187500.02, -187500.02, -172166.52, -187500.02, 0.00, 0.00, 0.00
247, -152140.08, -179363.41, -171248.23, -175586.53, -187500.02, -187500.02, -172416.75, -187500.02, 0.00, 0.00, 0.00
248, -150187.88, -175992.16, -171829.23, -175224.22, -187500.02, -187500.02, -173528.41, -187500.02, 0.00, 0.00, 0.00
249, -150475.38, -176521.17, -171724.95, -175277.50, -187500.02, -187500.02, -173347.03, -187500.02, 0.00, 0.00, 0.00
250, -152354.64, -179778.36, -171153.78, -175618.55, -187500.02, -187500.02, -172274.55, -187500.02, 0.00, 0.00, 0.00
251, -152330.53, -179733.14, -171156.00, -175603.80, -187500.02, -187500.02, -172294.66, -187500.02, 0.00, 0.00, 0.00
252, -150379.09, -176379.16, -171715.80, -175233.92, -187500.02, -187500.02, -173392.95, -187500.02, 0.00, 0.00, 0.00
253, -150050.23, -175858.09, -171779.34, -175169.77, -187500.02, -187500.02, -173549.48, -187500.02, 0.00, 0.00, 0.00
254, -151966.02, -179196.70, -171198.05, -175516.42, -187500.02, -187500.02, -172446.58, -187500.02, 0.01, 0.85, 0.42
255, -152366.56, -179884.36, -171079.84, -175578.22, -187500.02, -187500.02, -172219.11, -187500.02, 0.00, 0.00, 0.00
0, -150607.53, -176853.52, -171601.09, -175252.92, -187500.02, -187500.02, -173198.31, -187500.02, 0.00, 0.00, 0.00
1, -149766.27, -175427.48, -171833.44, -175106.48, -187500.02, -187500.02, -173647.48, -187500.02, 0.00, 0.00, 0.00
2, -151638.31, -178645.47, -171277.44, -175443.91, -187500.02, -187500.02, -172585.33, -187500.02, 0.00, 0.00, 0.00
3, -152483.06, -180056.02, -171014.98, -175591.14, -187500.02, -187500.02, -172118.50, -187500.02, 0.00, 0.00, 0.00
4, -150967.23, -177469.20, -171445.63, -175302.42, -187500.02, -187500.02, -172972.80, -187500.02, 0.00, 0.00, 0.00
5, -149606.80, -175195.20, -171831.05, -175055.95, -187500.02, -187500.02, -173724.09, -187500.02, 0.00, 0.00, 0.00
6, -151185.72, -177962.13, -171382.38, -175353.92, -187500.02, -187500.02, -172781.19, -187500.02, 0.00, 0.00, 0.00
7, -152421.02, -180109.05, -171027.77, -175583.20, -187500.02, -187500.02, -172057.84, -187500.02, 0.00, 0.00, 0.00
8, -151314.75, -178155.41, -171337.42, -175365.09, -187500.02, -187500.02, -172701.73, -187500.02, 0.03, 0.92, 0.43
9, -149665.20, -175232.42, -171775.66, -175043.36, -187500.02, -187500.02, -173655.41, -187500.02, 0.00, 0.00, 0.00
10, -150850.67, -177292.13, -171411.95, -175261.78, -187500.02, -187500.02, -172962.13, -187500.02, 0.00, 0.00, 0.00
11, -152349.73, -179952.02, -170978.03, -175542.92, -187500.02, -187500.02, -172088.17, -187500.02, 0.00, 0.00, 0.00
12, -151590.16, -178670.39, -171208.80, -175399.41, -187500.02, -187500.02, -172505.30, -187500.02, 0.00, 0.00, 0.00
13, -149695.97, -175406.11, -171760.08, -175044.69, -187500.02, -187500.02, -173567.23, -187500.02, 0.00, 0.00, 0.00
14, -150430.88, -176694.64, -171539.19, -175178.80, -187500.02, -187500.02, -173126.48, -187500.02, 0.00, 0.00, 0.00
15, -152221.88, -179763.72, -171006.55, -175501.72, -187500.02, -187500.02, -172100.14, -187500.02, 0.00, 0.00, 0.00
16, -151890.88, -179160.83, -171090.34, -175431.38, -187500.02, -187500.02, -172302.02, -187500.02, 0.00, 0.00, 0.00
17, -149881.88, -175729.92, -171651.48, -175057.88, -187500.02, -187500.02, -173442.77, -187500.02, 0.00, 0.00, 0.00
18, -150015.41, -175998.55, -171604.47, -175081.91, -187500.02, -187500.02, -173340.39, -187500.02, 0.01, 0.88, 0.39
19, -151969.75, -179344.67, -171057.38, -175436.20, -187500.02, -187500.02, -172206.14, -187500.02, 0.00, 0.00, 0.00
20, -152075.77, -179531.00, -171041.16, -175451.06, -187500.02, -187500.02, -172142.58, -187500.02, 0.00, 0.00, 0.00
21, -150164.56, -176265.22, -171581.73, -175100.13, -187500.02, -187500.02, -173238.13, -187500.02, 0.00, 0.00, 0.00
22, -149725.75, -175475.06, -171678.95, -175018.33, -187500.02, -187500.02, -173494.22, -187500.02, 0.00, 0.00, 0.00
23, -151685.39, -178795.38, -171115.19, -175369.13, -187500.02, -187500.02, -172379.16, -187500.02, 0.00, 0.00, 0.00
24, -152220.58, -179713.58, -170977.89, -175457.44, -187500.02, -187500.02, -172077.00, -187500.02, 0.00, 0.00, 0.00
25, -150493.33, -176796.34, -171484.20, -175144.06, -187500.02, -187500.02, -173052.42, -187500.02, 0.00, 0.00, 0.00
26, -149500.11, -175150.20, -171750.08, -174969.31, -187500.02, -187500.02, -173583.80, -187500.02, 0.00, 0.00, 0.00
27, -151309.88, -178274.77, -171218.11, -175305.86, -187500.02, -187500.02, -172530.63, -187500.02, 0.01, 0.88, 0.39
28, -152287.44, -179884.64, -170937.69, -175471.31, -187500.02, -187500.02, -171994.56, -187500.02, 0.00, 0.00, 0.00
29, -150899.64, -177434.94, -171344.05, -175198.20, -187500.02, -187500.02, -172815.55, -187500.02, 0.00, 0.00, 0.00
30, -149437.48, -174953.94, -171749.38, -174930.92, -187500.02, -187500.02, -173639.50, -187500.02, 0.00, 0.00, 0.00
31, -150935.77, -177612.05, -171316.19, -175221.27, -187500.02, -187500.02, -172744.42, -187500.02, 0.00, 0.00, 0.00
32, -152251.72, -179886.14, -170943.83, -175464.41, -187500.02, -187500.02, -171978.56, -187500.02, 0.00, 0.00, 0.00
33, -151230.02, -178098.67, -171238.42, -175263.27, -187500.02, -187500.02, -172571.64, -187500.02, 0.00, 0.00, 0.00
34, -149466.47, -175044.11, -171725.23, -174933.50, -187500.02, -187500.02, -173592.05, -187500.02, 0.00, 0.00, 0.00
35, -150538.91, -176897.17, -171398.02, -175133.75, -187500.02, -187500.02, -172965.22, -187500.02, 0.00, 0.00, 0.00
36, -152156.36, -179683.56, -170932.30, -175428.53, -187500.02, -187500.02, -172029.33, -187500.02, 0.00, 0.00, 0.00
37, -151503.63, -178579.34, -171133.02, -175300.86, -187500.02, -187500.02, -172397.30, -187500.02, 0.02, 0.92, 0.42
38, -149561.13, -175263.23, -171685.84, -174939.19, -187500.02, -187500.02, -173498.13, -187500.02, 0.00, 0.00, 0.00
39, -150138.66, -176260.67, -171503.25, -175047.66, -187500.02, -187500.02, -173149.73, -187500.02, 0.00, 0.00, 0.00
40, -152001.27, -179439.39, -170951.97, -175388.14, -187500.02, -187500.02, -172079.50, -187500.02, 0.00, 0.00, 0.00
41, -151792.66, -179058.14, -171004.27, -175338.95, -187500.02, -187500.02, -172211.94, -187500.02, 0.00, 0.00, 0.00
42, -149800.02, -175639.05, -171569.22, -174961.11, -187500.02, -187500.02, -173352.80, -187500.02, 0.00, 0.00, 0.00
43, -149771.44, -175636.22, -171572.36, -174958.36, -187500.02, -187500.02, -173343.89, -187500.02, 0.00, 0.00, 0.00
44, -151731.92, -179037.44, -171011.48, -175324.19, -187500.02, -187500.02, -172198.22, -187500.02, 0.00, 0.00, 0.00
45, -151967.19, -179423.61, -170939.34, -175359.89, -187500.02, -187500.02, -172063.52, -187500.02, 0.00, 0.00, 0.00
46, -150115.25, -176200.00, -171462.55, -175007.92, -187500.02, -187500.02, -173141.34, -187500.02, 0.00, 0.00, 0.00
47, -149522.23, -175171.55, -171616.86, -174898.08, -187500.02, -187500.02, -173483.81, -187500.02, 0.03, 0.87, 0.38
48, -151439.95, -178497.27, -171055.38, -175251.70, -187500.02, -187500.02, -172366.91, -187500.02, 0.00, 0.00, 0.00
49, -152072.02, -179609.09, -170870.98, -175364.25, -187500.02, -187500.02, -171994.97, -187500.02, 0.00, 0.00, 0.00
50, -150417.06, -176793.33, -171347.64, -175055.50, -187500.02, -187500.02, -172936.47, -187500.02, 0.00, 0.00, 0.00
51, -149296.58, -174879.22, -171656.94, -174848.14, -187500.02, -187500.02, -173565.00, -187500.02, 0.00, 0.00, 0.00
52, -151064.61, -177888.67, -171143.25, -175173.00, -187500.02, -187500.02, -172548.52, -187500.02, 0.00, 0.00, 0.00
53, -152140.19, -179691.08, -170824.13, -175360.98, -187500.02, -187500.02, -171944.78, -187500.02, 0.00, 0.00, 0.00
54, -150796.78, -177384.88, -171198.39, -175102.48, -187500.02, -187500.02, -172718.77, -187500.02, 0.00, 0.00, 0.00
55, -149221.94, -174736.19, -171632.58, -174814.86, -187500.02, -187500.02, -173599.78, -187500.02, 0.00, 0.00, 0.00
56, -150622.13, -177205.45, -171219.03, -175075.75, -187500.02, -187500.02, -172754.91, -187500.02, 0.00, 0.00, 0.00
57, -152055.77, -179660.36, -170810.61, -175338.00, -187500.02, -187500.02, -171929.67, -187500.02, 0.03, 0.91, 0.41
58, -151146.38, -178050.39, -171073.14, -175159.58, -187500.02, -187500.02, -172471.23, -187500.02, 0.00, 0.00, 0.00
59, -149302.58, -174847.45, -171583.42, -174810.22, -187500.02, -187500.02, -173538.06, -187500.02, 0.00, 0.00, 0.00
60, -150267.70, -176529.75, -171287.33, -174988.73, -187500.02, -187500.02, -172963.66, -187500.02, 0.00, 0.00, 0.00
61, -151950.81, -179455.31, -170800.38, -175300.55, -187500.02, -187500.02, -171982.50, -187500.02, 0.00, 0.00, 0.00
62, -151421.27, -178569.47, -170958.50, -175199.88, -187500.02, -187500.02, -172283.47, -187500.02, 0.00, 0.00, 0.00
63, -149430.61, -175160.31, -171522.70, -174829.61, -187500.02, -187500.02, -173422.08, -187500.02, 0.00, 0.00, 0.00
64, -149857.25, -175887.25, -171387.22, -174909.02, -187500.02, -187500.02, -173166.31, -187500.02, 0.00, 0.00, 0.00
65, -151782.94, -179159.47, -170828.09, -175259.52, -187500.02, -187500.02, -172063.23, -187500.02, 0.00, 0.00, 0.00
66, -151688.83, -178972.31, -170853.58, -175230.23, -187500.02, -187500.02, -172128.67, -187500.02, 0.00, 0.00, 0.00
67, -149691.66, -175567.88, -171415.09, -174853.75, -187500.02, -187500.02, -173267.39, -187500.02, 0.02, 0.89, 0.41
68, -149502.78, -175304.92, -171456.25, -174826.91, -187500.02, -187500.02, -173348.48, -187500.02, 0.00, 0.00, 0.00
69, -151488.88, -178738.02, -170883.50, -175195.66, -187500.02, -187500.02, -172187.23, -187500.02, 0.00, 0.00, 0.00
70, -151843.75, -179314.14, -170780.59, -175249.58, -187500.02, -187500.02, -171987.70, -187500.02, 0.00, 0.00, 0.00
71, -150028.22, -176157.67, -171292.30, -174898.34, -187500.02, -187500.02, -173041.70, -187500.02, 0.00, 0.00, 0.00
72, -149276.17, -174862.36, -171491.89, -174759.92, -187500.02, -187500.02, -173473.06, -187500.02, 0.00, 0.00, 0.00
73, -151181.89, -178167.06, -170940.55, -175117.39, -187500.02, -187500.02, -172362.59, -187500.02, 0.00, 0.00, 0.00
74, -151928.53, -179477.28, -170726.28, -175250.44, -187500.02, -187500.02, -171920.72, -187500.02, 0.00, 0.00, 0.00
75, -150339.33, -176765.81, -171179.47, -174947.03, -187500.02, -187500.02, -172824.98, -187500.02, 0.00, 0.00, 0.00
76, -149100.66, -174634.00, -171519.81, -174717.13, -187500.02, -187500.02, -173531.86, -187500.02, 0.00, 0.00, 0.00
77, -150801.50, -177533.69, -171023.61, -175033.13, -187500.02, -187500.02, -172552.13, -187500.02, 0.02, 0.89, 0.41
78, -151981.00, -179535.11, -170681.17, -175242.75, -187500.02, -187500.02, -171881.16, -187500.02, 0.00, 0.00, 0.00
79, -150732.31, -177398.44, -171039.92, -175000.63, -187500.02, -187500.02, -172601.02, -187500.02, 0.00, 0.00, 0.00
80, -149066.86, -174580.31, -171505.73, -174694.77, -187500.02, -187500.02, -173543.61, -187500.02, 0.00, 0.00, 0.00
81, -150385.30, -176881.44, -171119.97, -174946.22, -187500.02, -187500.02, -172764.00, -187500.02, 0.00, 0.00, 0.00
82, -151911.69, -179482.36, -170682.88, -175226.30, -187500.02, -187500.02, -171890.66, -187500.02, 0.00, 0.00, 0.00
83, -151088.20, -178032.67, -170925.70, -175064.89, -187500.02, -187500.02, -172385.08, -187500.02, 0.00, 0.00, 0.00
84, -149183.34, -174752.22, -171458.23, -174705.13, -187500.02, -187500.02, -173484.67, -187500.02, 0.00, 0.00, 0.00
85, -149996.86, -176180.64, -171203.89, -174856.78, -187500.02, -187500.02, -172992.70, -187500.02, 0.00, 0.00, 0.00
86, -151767.16, -179244.33, -170689.25, -175182.94, -187500.02, -187500.02, -171959.23, -187500.02, 0.00, 0.00, 0.00
87, -151344.33, -178530.55, -170814.34, -175096.88, -187500.02, -187500.02, -172199.44, -187500.02, 0.03, 0.91, 0.42
88, -149344.53, -175100.30, -171383.00, -174721.97, -187500.02, -187500.02, -173350.63, -187500.02, 0.00, 0.00, 0.00
89, -149615.84, -175563.20, -171284.70, -174769.92, -187500.02, -187500.02, -173181.06, -187500.02, 0.00, 0.00, 0.00
90, -151574.08, -178902.55, -170714.77, -175130.52, -187500.02, -187500.02, -172056.09, -187500.02, 0.00, 0.00, 0.00
91, -151595.14, -178930.69, -170709.97, -175126.16, -187500.02, -187500.02, -172052.75, -187500.02, 0.00, 0.00, 0.00
92, -149623.94, -175575.05, -171270.91, -174754.67, -187500.02, -187500.02, -173180.19, -187500.02, 0.00, 0.00, 0.00
93, -149277.23, -175027.20, -171356.83, -174695.86, -187500.02, -187500.02, -173356.17, -187500.02, 0.00, 0.00, 0.00
94, -151266.83, -178448.09, -170780.67, -175064.98, -187500.02, -187500.02, -172199.08, -187500.02, 0.00, 0.00, 0.00
95, -151739.63, -179219.86, -170645.30, -175142.50, -187500.02, -187500.02, -171939.72, -187500.02, 0.00, 0.00, 0.00
96, -149974.86, -176161.06, -171149.84, -174803.91, -187500.02, -187500.02, -172968.98, -187500.02, 0.00, 0.00, 0.00
97, -149071.13, -174631.17, -171389.30, -174635.56, -187500.02, -187500.02, -173474.78, -187500.02, 0.03, 0.89, 0.41
98, -150929.39, -177862.08, -170851.63, -174987.05, -187500.02, -187500.02, -172389.77, -187500.02, 0.00, 0.00, 0.00
99, -151802.61, -179369.55, -170604.13, -175145.11, -187500.02, -187500.02, -171886.23, -187500.02, 0.00, 0.00, 0.00
100, -150312.03, -176803.16, -171033.31, -174857.88, -187500.02, -187500.02, -172745.00, -187500.02, 0.00, 0.00, 0.00
101, -148946.55, -174453.22, -171410.14, -174600.94, -187500.02, -187500.02, -173525.30, -187500.02, 0.00, 0.00, 0.00
102, -150557.81, -177214.33, -170940.92, -174902.75, -187500.02, -187500.02, -172594.38, -187500.02, 0.00, 0.00, 0.00
103, -151824.63, -179379.77, -170573.91, -175132.58, -187500.02, -187500.02, -171869.80, -187500.02, 0.00, 0.00, 0.00
104, -150678.83, -177421.91, -170903.20, -174909.56, -187500.02, -187500.02, -172529.17, -187500.02, 0.00, 0.00, 0.00
105, -148942.77, -174467.94, -171396.52, -174591.70, -187500.02, -187500.02, -173523.25, -187500.02, 0.00, 0.00, 0.00
106, -150142.30, -176552.22, -171044.81, -174818.39, -187500.02, -187500.02, -172815.41, -187500.02, 0.00, 0.00, 0.00
107, -151739.94, -179278.39, -170579.33, -175105.95, -187500.02, -187500.02, -171891.88, -187500.02, 0.02, 0.91, 0.42
108, -151030.16, -178029.98, -170787.34, -174963.33, -187500.02, -187500.02, -172316.28, -187500.02, 0.00, 0.00, 0.00
109, -149088.17, -174688.23, -171338.05, -174597.45, -187500.02, -187500.02, -173442.06, -187500.02, 0.00, 0.00, 0.00
110, -149769.17, -175892.31, -171128.89, -174727.45, -187500.02, -187500.02, -173030.75, -187500.02, 0.00, 0.00, 0.00
111, -151588.81, -179040.97, -170601.50, -175064.48, -187500.02, -187500.02, -171969.95, -187500.02, 0.00, 0.00, 0.00
112, -151297.66, -178540.91, -170689.06, -175002.34, -187500.02, -187500.02, -172139.03, -187500.02, 0.00, 0.00, 0.00
113, -149298.42, -175098.84, -171257.78, -174625.48, -187500.02, -187500.02, -173292.70, -187500.02, 0.00, 0.00, 0.00
114, -149413.11, -175292.03, -171213.55, -174648.70, -187500.02, -187500.02, -173222.38, -187500.02, 0.00, 0.00, 0.00
115, -151388.11, -178675.33, -170643.52, -175014.91, -187500.02, -187500.02, -172086.00, -187500.02, 0.00, 0.00, 0.00
116, -151517.17, -178894.39, -170608.36, -175031.41, -187500.02, -187500.02, -172016.94, -187500.02, 0.02, 0.90, 0.42
117, -149591.91, -175608.69, -171160.47, -174671.55, -187500.02, -187500.02, -173124.31, -187500.02, 0.00, 0.00, 0.00
118, -149087.03, -174776.42, -171288.61, -174582.42, -187500.02, -187500.02, -173393.78, -187500.02, 0.00, 0.00, 0.00
119, -151056.80, -178159.64, -170716.78, -174947.41, -187500.02, -187500.02, -172249.00, -187500.02, 0.00, 0.00, 0.00
120, -151643.11, -179131.88, -170552.16, -175048.28, -187500.02, -187500.02, -171925.67, -187500.02, 0.00, 0.00, 0.00
121, -149932.30, -176178.70, -171042.30, -174720.98, -187500.02, -187500.02, -172919.48, -187500.02, 0.00, 0.00, 0.00
122, -148906.33, -174441.92, -171316.84, -174528.98, -187500.02, -187500.02, -173493.03, -187500.02, 0.00, 0.00, 0.00
123, -150702.14, -177559.09, -170792.48, -174867.22, -187500.02, -187500.02, -172438.41, -187500.02, 0.00, 0.00, 0.00
124, -151695.97, -179267.41, -170505.36, -175045.56, -187500.02, -187500.02, -171862.31, -187500.02, 0.00, 0.00, 0.00
125, -150310.64, -176879.09, -170905.39, -174779.03, -187500.02, -187500.02, -172665.66, -187500.02, 0.00, 0.00, 0.00
126, -148827.98, -174330.72, -171316.70, -174502.00, -187500.02, -187500.02, -173515.78, -187500.02, 0.03, 0.90, 0.42
127, -150352.17, -176955.92, -170870.67, -174787.70, -187500.02, -187500.02, -172627.28, -187500.02, 0.00, 0.00, 0.00
128, -151694.58, -179257.23, -170481.64, -175033.75, -187500.02, -187500.02, -171854.33, -187500.02, 0.00, 0.00, 0.00
129, -150673.27, -177504.86, -170781.72, -174837.84, -187500.02, -187500.02, -172451.38, -187500.02, 0.00, 0.00, 0.00
130, -148855.17, -174402.31, -171294.06, -174500.06, -187500.02, -187500.02, -173491.91, -187500.02, 0.00, 0.00, 0.00
131, -149921.73, -176253.80, -170982.38, -174703.89, -187500.02, -187500.02, -172865.03, -187500.02, 0.00, 0.00, 0.00
132, -151600.80, -179117.63, -170500.36, -175012.13, -187500.02, -187500.02, -171902.20, -187500.02, 0.00, 0.00, 0.00
133, -150982.77, -178032.94, -170677.80, -174886.80, -187500.02, -187500.02, -172268.06, -187500.02, 0.00, 0.00, 0.00
134, -149007.41, -174646.88, -171231.95, -174512.38, -187500.02, -187500.02, -173403.80, -187500.02, 0.00, 0.00, 0.00
135, -149525.72, -175574.09, -171069.83, -174612.69, -187500.02, -187500.02, -173085.72, -187500.02, 0.00, 0.00, 0.00
136, -151407.09, -178820.30, -170527.05, -174961.63, -187500.02, -187500.02, -171991.50, -187500.02, 0.02, 0.91, 0.42
137, -151234.41, -178511.50, -170584.44, -174923.61, -187500.02, -187500.02, -172102.55, -187500.02, 0.00, 0.00, 0.00
138, -149248.89, -175091.31, -171149.33, -174549.73, -187500.02, -187500.02, -173251.92, -187500.02, 0.00, 0.00, 0.00
139, -149197.16, -175007.72, -171148.78, -174539.56, -187500.02, -187500.02, -173270.88, -187500.02, 0.00, 0.00, 0.00
140, -151177.16, -178411.97, -170570.66, -174902.34, -187500.02, -187500.02, -172116.92, -187500.02, 0.00, 0.00, 0.00
141, -151430.58, -178845.20, -170499.70, -174942.22, -187500.02, -187500.02, -171976.08, -187500.02, 0.00, 0.00, 0.00
142, -149557.28, -175636.22, -171039.97, -174592.98, -187500.02, -187500.02, -173063.09, -187500.02, 0.00, 0.00, 0.00
143, -148910.58, -174553.33, -171205.45, -174473.73, -187500.02, -187500.02, -173414.81, -187500.02, 0.00, 0.00, 0.00
144, -150853.86, -177895.27, -170641.64, -174833.33, -187500.02, -187500.02, -172283.42, -187500.02, 0.00, 0.00, 0.00
145, -151548.67, -179062.88, -170444.14, -174953.83, -187500.02, -187500.02, -171893.56, -187500.02, 0.00, 0.00, 0.00
146, -149918.47, -176252.89, -170910.64, -174641.23, -187500.02, -187500.02, -172841.08, -187500.02, 0.02, 0.90, 0.41
147, -148752.53, -174270.89, -171232.86, -174428.00, -187500.02, -187500.02, -173506.78, -187500.02, 0.00, 0.00, 0.00
148, -150486.84, -177280.27, -170726.23, -174753.69, -187500.02, -187500.02, -172487.83, -187500.02, 0.00, 0.00, 0.00
149, -151582.63, -179153.20, -170417.61, -174953.45, -187500.02, -187500.02, -171864.09, -187500.02, 0.00, 0.00, 0.00
150, -150281.20, -176905.09, -170794.50, -174702.09, -187500.02, -187500.02, -172624.08, -187500.02, 0.00, 0.00, 0.00
151, -148704.41, -174199.19, -171230.58, -174405.88, -187500.02, -187500.02, -173527.22, -187500.02, 0.00, 0.00, 0.00
152, -150105.75, -176621.56, -170815.13, -174667.20, -187500.02, -187500.02, -172702.45, -187500.02, 0.00, 0.00, 0.00
153, -151551.61, -179104.67, -170396.53, -174932.25, -187500.02, -187500.02, -171866.41, -187500.02, 0.00, 0.00, 0.00
154, -150638.33, -177539.50, -170663.97, -174755.19, -187500.02, -187500.02, -172400.81, -187500.02, 0.00, 0.00, 0.00
155, -148769.52, -174341.13, -171193.38, -174409.83, -187500.02, -187500.02, -173478.56, -187500.02, 0.00, 0.00, 0.00
156, -149714.70, -175984.98, -170909.02, -174588.31, -187500.02, -187500.02, -172915.34, -187500.02, 0.02, 0.91, 0.41
157, -151440.13, -178940.73, -170406.20, -174903.09, -187500.02, -187500.02, -171914.66, -187500.02, 0.00, 0.00, 0.00
158, -150952.03, -178087.70, -170549.42, -174805.45, -187500.02, -187500.02, -172206.08, -187500.02, 0.00, 0.00, 0.00
159, -148953.16, -174654.56, -171120.41, -174432.94, -187500.02, -187500.02, -173366.94, -187500.02, 0.00, 0.00, 0.00
160, -149330.08, -175331.34, -171000.77, -174510.05, -187500.02, -187500.02, -173134.08, -187500.02, 0.00, 0.00, 0.00
161, -151243.72, -178628.70, -170446.31, -174866.08, -187500.02, -187500.02, -172020.61, -187500.02, 0.00, 0.00, 0.00
162, -151177.52, -178503.73, -170467.72, -174847.14, -187500.02, -187500.02, -172065.47, -187500.02, 0.00, 0.00, 0.00
163, -149210.11, -175119.70, -171031.61, -174480.61, -187500.02, -187500.02, -173209.14, -187500.02, 0.00, 0.00, 0.00
164, -148992.88, -174761.75, -171081.75, -174443.56, -187500.02, -187500.02, -173326.16, -187500.02, 0.00, 0.00, 0.00
165, -150975.13, -178173.50, -170502.88, -174808.88, -187500.02, -187500.02, -172168.63, -187500.02, 0.00, 0.00, 0.00
166, -151345.58, -178803.47, -170395.67, -174869.72, -187500.02, -187500.02, -171957.33, -187500.02, 0.02, 0.91, 0.41
167, -149522.55, -175677.48, -170915.94, -174523.94, -187500.02, -187500.02, -173009.89, -187500.02, 0.00, 0.00, 0.00
168, -148740.30, -174355.73, -171125.27, -174381.28, -187500.02, -187500.02, -173447.81, -187500.02, 0.00, 0.00, 0.00
169, -150655.02, -177651.41, -170571.55, -174735.97, -187500.02, -187500.02, -172335.34, -187500.02, 0.00, 0.00, 0.00
170, -151452.20, -179004.66, -170339.42, -174873.98, -187500.02, -187500.02, -171878.00, -187500.02, 0.00, 0.00, 0.00
171, -149908.23, -176344.11, -170782.91, -174579.56, -187500.02, -187500.02, -172775.88, -187500.02, 0.00, 0.00, 0.00
172, -148613.19, -174135.75, -171145.11, -174343.95, -187500.02, -187500.02, -173519.94, -187500.02, 0.00, 0.00, 0.00
173, -150292.70, -177044.89, -170658.94, -174661.02, -187500.02, -187500.02, -172538.11, -187500.02, 0.00, 0.00, 0.00
174, -151470.48, -179060.13, -170320.00, -174871.53, -187500.02, -187500.02, -171859.97, -187500.02, 0.00, 0.00, 0.00
175, -150267.91, -176977.34, -170668.61, -174638.95, -187500.02, -187500.02, -172563.64, -187500.02, 0.00, 0.00, 0.00
176, -148590.81, -174100.28, -171136.17, -174326.03, -187500.02, -187500.02, -173526.91, -187500.02, 0.03, 0.90, 0.41
177, -149864.42, -176309.80, -170757.83, -174564.13, -187500.02, -187500.02, -172773.66, -187500.02, 0.00, 0.00, 0.00
178, -151397.55, -178944.95, -170314.83, -174845.27, -187500.02, -187500.02, -171886.19, -187500.02, 0.00, 0.00, 0.00
179, -150563.33, -177503.95, -170561.66, -174683.38, -187500.02, -187500.02, -172379.80, -187500.02, 0.00, 0.00, 0.00
180, -148669.25, -174257.64, -171095.94, -174330.77, -187500.02, -187500.02, -173470.92, -187500.02, 0.00, 0.00, 0.00
181, -149449.19, -175618.14, -170859.08, -174477.31, -187500.02, -187500.02, -173003.97, -187500.02, 0.00, 0.00, 0.00
182, -151258.66, -178721.39, -170333.56, -174806.42, -187500.02, -187500.02, -171952.91, -187500.02, 0.00, 0.00, 0.00
183, -150878.38, -178057.55, -170443.13, -174726.08, -187500.02, -187500.02, -172176.98, -187500.02, 0.00, 0.00, 0.00
184, -148877.67, -174624.61, -171010.00, -174349.59, -187500.02, -187500.02, -173332.86, -187500.02, 0.00, 0.00, 0.00
185, -149108.19, -175046.98, -170929.06, -174395.75, -187500.02, -187500.02, -173182.20, -187500.02, 0.00, 0.00, 0.00
186, -151064.70, -178412.27, -170368.25, -174760.73, -187500.02, -187500.02, -172050.53, -187500.02, 0.03, 0.91, 0.42
187, -151125.86, -178506.14, -170353.61, -174764.08, -187500.02, -187500.02, -172022.50, -187500.02, 0.00, 0.00, 0.00
188, -149183.56, -175168.47, -170904.09, -174396.80, -187500.02, -187500.02, -173144.52, -187500.02, 0.00, 0.00, 0.00
189, -148814.64, -174550.98, -170994.66, -174329.59, -187500.02, -187500.02, -173345.34, -187500.02, 0.00, 0.00, 0.00
190, -150799.92, -177970.78, -170422.64, -174699.73, -187500.02, -187500.02, -172192.63, -187500.02, 0.00, 0.00, 0.00
191, -151274.36, -178779.34, -170284.56, -174778.41, -187500.02, -187500.02, -171919.44, -187500.02, 0.00, 0.00, 0.00
192, -149522.08, -175767.89, -170784.13, -174444.03, -187500.02, -187500.02, -172931.91, -187500.02, 0.00, 0.00, 0.00
193, -148582.80, -174170.47, -171040.59, -174274.63, -187500.02, -187500.02, -173466.41, -187500.02, 0.00, 0.00, 0.00
194, -150440.67, -177373.30, -170501.66, -174620.25, -187500.02, -187500.02, -172384.31, -187500.02, 0.00, 0.00, 0.00
195, -151339.55, -178904.63, -170242.59, -174780.02, -187500.02, -187500.02, -171869.64, -187500.02, 0.03, 0.90, 0.42
196, -149858.11, -176355.70, -170668.38, -174496.44, -187500.02, -187500.02, -172730.56, -187500.02, 0.00, 0.00, 0.00
197, -148466.08, -173982.78, -171053.41, -174239.31, -187500.02, -187500.02, -173525.17, -187500.02, 0.00, 0.00, 0.00
198, -150029.28, -176692.75, -170591.06, -174530.48, -187500.02, -187500.02, -172601.03, -187500.02, 0.00, 0.00, 0.00
199, -151335.45, -178923.56, -170218.30, -174767.72, -187500.02, -187500.02, -171852.75, -187500.02, 0.00, 0.00, 0.00
200, -150241.31, -177028.64, -170541.14, -174558.45, -187500.02, -187500.02, -172499.33, -187500.02, 0.00, 0.00, 0.00
201, -148492.06, -174030.28, -171031.72, -174233.16, -187500.02, -187500.02, -173506.69, -187500.02, 0.00, 0.00, 0.00
202, -149669.42, -176077.05, -170677.80, -174451.94, -187500.02, -187500.02, -172804.89, -187500.02, 0.00, 0.00, 0.00
203, -151270.23, -178825.66, -170219.03, -174749.28, -187500.02, -187500.02, -171882.73, -187500.02, 0.00, 0.00, 0.00
204, -150582.17, -177633.64, -170425.42, -174614.86, -187500.02, -187500.02, -172293.31, -187500.02, 0.00, 0.00, 0.00
205, -148623.09, -174272.34, -170978.88, -174248.97, -187500.02, -187500.02, -173423.14, -187500.02, 0.04, 0.90, 0.43
206, -149274.09, -175407.59, -170783.02, -174374.64, -187500.02, -187500.02, -173035.89, -187500.02, 0.00, 0.00, 0.00
207, -151122.80, -178582.50, -170245.09, -174711.95, -187500.02, -187500.02, -171960.33, -187500.02, 0.00, 0.00, 0.00
208, -150850.06, -178105.11, -170321.78, -174650.95, -187500.02, -187500.02, -172120.27, -187500.02, 0.00, 0.00, 0.00
209, -148846.34, -174666.19, -170890.66, -174273.73, -187500.02, -187500.02, -173278.42, -187500.02, 0.00, 0.00, 0.00
210, -148918.06, -174814.42, -170856.23, -174290.66, -187500.02, -187500.02, -173220.73, -187500.02, 0.00, 0.00, 0.00
211, -150892.69, -178213.06, -170284.28, -174655.78, -187500.02, -187500.02, -172070.97, -187500.02, 0.00, 0.00, 0.00
212, -151068.31, -178497.61, -170237.61, -174680.86, -187500.02, -187500.02, -171978.73, -187500.02, 0.00, 0.00, 0.00
213, -149171.36, -175232.66, -170784.13, -174326.81, -187500.02, -187500.02, -173085.28, -187500.02, 0.00, 0.00, 0.00
214, -148646.67, -174349.88, -170920.70, -174231.66, -187500.02, -187500.02, -173377.38, -187500.02, 0.00, 0.00, 0.00
215, -150613.63, -177743.86, -170347.48, -174595.44, -187500.02, -187500.02, -172226.20, -187500.02, 0.03, 0.89, 0.43
216, -151199.98, -178742.56, -170178.17, -174695.89, -187500.02, -187500.02, -171889.53, -187500.02, 0.00, 0.00, 0.00
217, -149516.58, -175847.16, -170660.72, -174375.25, -187500.02, -187500.02, -172865.86, -187500.02, 0.00, 0.00, 0.00
218, -148447.30, -174021.59, -170957.73, -174182.59, -187500.02, -187500.02, -173479.48, -187500.02, 0.00, 0.00, 0.00
219, -150252.16, -177131.95, -170435.36, -174519.11, -187500.02, -187500.02, -172427.63, -187500.02, 0.00, 0.00, 0.00
220, -151254.34, -178842.14, -170144.95, -174697.00, -187500.02, -187500.02, -171850.17, -187500.02, 0.00, 0.00, 0.00
221, -149866.31, -176453.63, -170543.33, -174429.92, -187500.02, -187500.02, -172656.72, -187500.02, 0.00, 0.00, 0.00
222, -148363.13, -173885.13, -170962.05, -174152.03, -187500.02, -187500.02, -173519.06, -187500.02, 0.00, 0.00, 0.00
223, -149837.16, -176442.08, -170527.70, -174428.27, -187500.02, -187500.02, -172647.97, -187500.02, 0.00, 0.00, 0.00
224, -151229.80, -178823.83, -170130.20, -174681.98, -187500.02, -187500.02, -171847.94, -187500.02, 0.00, 0.00, 0.00
225, -150225.27, -177084.69, -170422.03, -174485.47, -187500.02, -187500.02, -172436.69, -187500.02, 0.03, 0.90, 0.42
226, -148411.55, -173974.63, -170928.13, -174144.47, -187500.02, -187500.02, -173478.45, -187500.02, 0.00, 0.00, 0.00
227, -149457.55, -175791.17, -170619.78, -174343.80, -187500.02, -187500.02, -172861.44, -187500.02, 0.00, 0.00, 0.00
228, -151140.19, -178680.95, -170135.19, -174654.45, -187500.02, -187500.02, -171886.88, -187500.02, 0.00, 0.00, 0.00
229, -150558.73, -177671.94, -170308.19, -174537.44, -187500.02, -187500.02, -172232.34, -187500.02, 0.00, 0.00, 0.00
230, -148575.59, -174269.75, -170867.17, -174164.72, -187500.02, -187500.02, -173375.23, -187500.02, 0.00, 0.00, 0.00
231, -149074.11, -175146.86, -170709.03, -174258.75, -187500.02, -187500.02, -173069.28, -187500.02, 0.00, 0.00, 0.00
232, -150971.86, -178405.34, -170159.63, -174606.95, -187500.02, -187500.02, -171966.53, -187500.02, 0.00, 0.00, 0.00
233, -150815.70, -178125.61, -170209.06, -174571.39, -187500.02, -187500.02, -172065.78, -187500.02, 0.00, 0.00, 0.00
234, -148823.55, -174705.67, -170775.30, -174195.09, -187500.02, -187500.02, -173218.50, -187500.02, 0.00, 0.00, 0.00
235, -148730.89, -174566.81, -170789.09, -174181.91, -187500.02, -187500.02, -173258.89, -187500.02, 0.03, 0.89, 0.42
236, -150719.31, -177988.70, -170212.94, -174550.00, -187500.02, -187500.02, -172099.31, -187500.02, 0.00, 0.00, 0.00
237, -151009.55, -178470.94, -170135.66, -174598.20, -187500.02, -187500.02, -171942.91, -187500.02, 0.00, 0.00, 0.00
238, -149149.75, -175272.50, -170669.91, -174249.08, -187500.02, -187500.02, -173026.08, -187500.02, 0.00, 0.00, 0.00
239, -148478.25, -174137.81, -170845.00, -174123.97, -187500.02, -187500.02, -173399.83, -187500.02, 0.00, 0.00, 0.00
240, -150414.09, -177474.86, -170284.92, -174485.36, -187500.02, -187500.02, -172270.56, -187500.02, 0.00, 0.00, 0.00
241, -151129.61, -178693.08, -170081.66, -174612.22, -187500.02, -187500.02, -171862.42, -187500.02, 0.00, 0.00, 0.00
242, -149511.86, -175909.66, -170546.63, -174303.84, -187500.02, -187500.02, -172802.89, -187500.02, 0.00, 0.00, 0.00
243, -148323.84, -173884.66, -170871.06, -174084.34, -187500.02, -187500.02, -173477.73, -187500.02, 0.00, 0.00, 0.00
244, -150063.23, -176882.67, -170369.61, -174411.27, -187500.02, -187500.02, -172465.30, -187500.02, 0.00, 0.00, 0.00
245, -151180.00, -178786.50, -170050.55, -174613.50, -187500.02, -187500.02, -171825.77, -187500.02, 0.03, 0.89, 0.42
246, -149898.42, -176578.63, -170421.67, -174367.30, -187500.02, -187500.02, -172574.80, -187500.02, 0.00, 0.00, 0.00
247, -148288.67, -173827.70, -170870.39, -174068.39, -187500.02, -187500.02, -173497.97, -187500.02, 0.00, 0.00, 0.00
248, -149673.33, -176229.80, -170461.58, -174328.45, -187500.02, -187500.02, -172677.39, -187500.02, 0.00, 0.00, 0.00
249, -151143.45, -178741.34, -170040.69, -174596.80, -187500.02, -187500.02, -171830.91, -187500.02, 0.00, 0.00, 0.00
250, -150251.30, -177195.77, -170298.89, -174420.42, -187500.02, -187500.02, -172353.89, -187500.02, 0.00, 0.00, 0.00
251, -148365.88, -173965.56, -170825.23, -174065.48, -187500.02, -187500.02, -173437.73, -187500.02, 0.00, 0.00, 0.00
252, -149276.50, -175552.55, -170553.28, -174238.81, -187500.02, -187500.02, -172895.19, -187500.02, 0.00, 0.00, 0.00
253, -151025.95, -178555.27, -170051.94, -174564.03, -187500.02, -187500.02, -171882.78, -187500.02, 0.00, 0.00, 0.00
254, -150558.75, -177741.73, -170189.50, -174466.64, -187500.02, -187500.02, -172159.61, -187500.02, 0.00, 0.00, 0.00
255, -148554.63, -174300.11, -170753.59, -174087.83, -187500.02, -187500.02, -173315.02, -187500.02, 0.03, 0.90, 0.43
0, -148909.42, -174926.73, -170639.78, -174157.45, -187500.02, -187500.02, -173096.39, -187500.02, 0.00, 0.00, 0.00
1, -150843.89, -178249.44, -170082.52, -174515.31, -187500.02, -187500.02, -171974.06, -187500.02, 0.00, 0.00, 0.00
2, -150805.92, -178175.67, -170094.80, -174500.38, -187500.02, -187500.02, -172001.27, -187500.02, 0.00, 0.00, 0.00
3, -148835.48, -174789.36, -170660.45, -174130.50, -187500.02, -187500.02, -173148.31, -187500.02, 0.00, 0.00, 0.00
4, -148590.72, -174387.16, -170721.17, -174090.56, -187500.02, -187500.02, -173279.80, -187500.02, 0.00, 0.00, 0.00
5, -150587.77, -177820.77, -170146.44, -174462.53, -187500.02, -187500.02, -172117.84, -187500.02, 0.00, 0.00, 0.00
6, -150986.63, -178485.00, -170036.17, -174529.83, -187500.02, -187500.02, -171896.94, -187500.02, 0.00, 0.00, 0.00
7, -149181.70, -175381.27, -170550.06, -174186.95, -187500.02, -187500.02, -172943.89, -187500.02, 0.00, 0.00, 0.00
8, -148355.81, -173982.19, -170770.27, -174033.92, -187500.02, -187500.02, -173409.14, -187500.02, 0.00, 0.00, 0.00
9, -150256.95, -177264.28, -170216.78, -174387.20, -187500.02, -187500.02, -172293.52, -187500.02, 0.03, 0.90, 0.43
10, -151069.56, -178651.77, -169984.09, -174531.73, -187500.02, -187500.02, -171825.61, -187500.02, 0.00, 0.00, 0.00
11, -149540.56, -176017.08, -170430.08, -174243.20, -187500.02, -187500.02, -172722.58, -187500.02, 0.00, 0.00, 0.00
12, -148223.20, -173763.63, -170793.66, -174000.39, -187500.02, -187500.02, -173477.11, -187500.02, 0.00, 0.00, 0.00
13, -149889.08, -176633.88, -170310.55, -174312.22, -187500.02, -187500.02, -172503.98, -187500.02, 0.00, 0.00, 0.00
14, -151092.25, -178693.70, -169958.33, -174526.30, -187500.02, -187500.02, -171803.13, -187500.02, 0.00, 0.00, 0.00
15, -149899.75, -176643.95, -170301.38, -174295.41, -187500.02, -187500.02, -172496.98, -187500.02, 0.00, 0.00, 0.00
16, -148201.84, -173741.28, -170776.75, -173980.30, -187500.02, -187500.02, -173473.42, -187500.02, 0.00, 0.00, 0.00
17, -149473.38, -175945.27, -170404.33, -174222.61, -187500.02, -187500.02, -172723.02, -187500.02, 0.00, 0.00, 0.00
18, -151030.36, -178605.00, -169958.56, -174507.34, -187500.02, -187500.02, -171825.59, -187500.02, 0.00, 0.00, 0.00
19, -150242.92, -177233.64, -170191.36, -174352.58, -187500.02, -187500.02, -172294.28, -187500.02, 0.03, 0.90, 0.43
20, -148317.61, -173931.53, -170736.30, -173994.22, -187500.02, -187500.02, -173410.17, -187500.02, 0.00, 0.00, 0.00
21, -149070.47, -175252.47, -170505.81, -174137.42, -187500.02, -187500.02, -172955.09, -187500.02, 0.00, 0.00, 0.00
22, -150888.00, -178376.09, -169982.89, -174475.47, -187500.02, -187500.02, -171899.64, -187500.02, 0.00, 0.00, 0.00
23, -150521.58, -177734.61, -170091.67, -174397.16, -187500.02, -187500.02, -172118.03, -187500.02, 0.00, 0.00, 0.00
24, -148520.63, -174297.75, -170659.50, -174020.53, -187500.02, -187500.02, -173276.39, -187500.02, 0.00, 0.00, 0.00
25, -148720.50, -174656.17, -170590.23, -174061.30, -187500.02, -187500.02, -173148.39, -187500.02, 0.00, 0.00, 0.00
26, -150688.23, -178033.81, -170021.13, -174424.53, -187500.02, -187500.02, -172003.47, -187500.02, 0.00, 0.00, 0.00
27, -150767.58, -178162.33, -169998.56, -174431.28, -187500.02, -187500.02, -171961.19, -187500.02, 0.00, 0.00, 0.00
28, -148822.06, -174825.53, -170553.22, -174063.22, -187500.02, -187500.02, -173088.95, -187500.02, 0.03, 0.90, 0.42
29, -148422.58, -174157.75, -170658.02, -173994.27, -187500.02, -187500.02, -173310.13, -187500.02, 0.00, 0.00, 0.00
30, -150413.28, -177581.52, -170084.94, -174365.84, -187500.02, -187500.02, -172150.17, -187500.02, 0.00, 0.00, 0.00
31, -150924.03, -178439.98, -169940.67, -174453.53, -187500.02, -187500.02, -171862.72, -187500.02, 0.00, 0.00, 0.00
32, -149173.89, -175428.16, -170438.55, -174119.45, -187500.02, -187500.02, -172878.44, -187500.02, 0.00, 0.00, 0.00
33, -148212.05, -173793.61, -170698.72, -173940.84, -187500.02, -187500.02, -173423.52, -187500.02, 0.00, 0.00, 0.00
34, -150058.52, -176982.69, -170165.44, -174287.63, -187500.02, -187500.02, -172343.17, -187500.02, 0.00, 0.00, 0.00
35, -150992.36, -178576.22, -169900.80, -174456.86, -187500.02, -187500.02, -171808.13, -187500.02, 0.00, 0.00, 0.00
36, -149537.91, -176067.61, -170321.94, -174178.98, -187500.02, -187500.02, -172658.69, -187500.02, 0.00, 0.00, 0.00
37, -148118.97, -173640.58, -170716.03, -173917.28, -187500.02, -187500.02, -173474.05, -187500.02, 0.00, 0.00, 0.00
38, -149684.06, -176344.91, -170254.95, -174207.23, -187500.02, -187500.02, -172550.34, -187500.02, 0.03, 0.90, 0.42
39, -150997.20, -178588.36, -169878.97, -174446.78, -187500.02, -187500.02, -171794.31, -187500.02, 0.00, 0.00, 0.00
40, -149907.59, -176709.53, -170200.50, -174239.11, -187500.02, -187500.02, -172438.31, -187500.02, 0.00, 0.00, 0.00
41, -148140.55, -173686.77, -170697.36, -173910.89, -187500.02, -187500.02, -173457.05, -187500.02, 0.00, 0.00, 0.00
42, -149283.11, -175672.23, -170353.97, -174124.39, -187500.02, -187500.02, -172771.53, -187500.02, 0.00, 0.00, 0.00
43, -150918.75, -178470.94, -169881.56, -174422.33, -187500.02, -187500.02, -171822.41, -187500.02, 0.00, 0.00, 0.00
44, -150244.44, -177298.14, -170079.94, -174288.25, -187500.02, -187500.02, -172223.58, -187500.02, 0.00, 0.00, 0.00
45, -148279.81, -173928.55, -170635.38, -173921.17, -187500.02, -187500.02, -173362.58, -187500.02, 0.00, 0.00, 0.00
46, -148902.73, -175023.39, -170446.06, -174042.81, -187500.02, -187500.02, -172987.77, -187500.02, 0.00, 0.00, 0.00
47, -150763.25, -178225.55, -169909.42, -174388.75, -187500.02, -187500.02, -171903.73, -187500.02, 0.00, 0.00, 0.00
48, -150516.11, -177788.47, -169985.39, -174333.67, -187500.02, -187500.02, -172054.64, -187500.02, 0.03, 0.90, 0.43
49, -148518.44, -174349.44, -170557.30, -173959.13, -187500.02, -187500.02, -173218.38, -187500.02, 0.00, 0.00, 0.00
50, -148552.14, -174422.08, -170533.59, -173968.45, -187500.02, -187500.02, -173185.92, -187500.02, 0.00, 0.00, 0.00
51, -150537.00, -177835.56, -169957.83, -174335.64, -187500.02, -187500.02, -172028.45, -187500.02, 0.00, 0.00, 0.00
52, -150723.33, -178150.34, -169902.88, -174362.17, -187500.02, -187500.02, -171922.30, -187500.02, 0.00, 0.00, 0.00
53, -148816.55, -174880.09, -170449.72, -174002.98, -187500.02, -187500.02, -173031.02, -187500.02, 0.00, 0.00, 0.00
54, -148267.59, -173960.78, -170591.44, -173903.25, -187500.02, -187500.02, -173332.91, -187500.02, 0.00, 0.00, 0.00
55, -150235.95, -177347.05, -170020.94, -174269.58, -187500.02, -187500.02, -172182.09, -187500.02, 0.00, 0.00, 0.00
56, -150874.25, -178420.95, -169841.56, -174381.70, -187500.02, -187500.02, -171822.23, -187500.02, 0.00, 0.00, 0.00
57, -149198.83, -175538.69, -170320.44, -174061.88, -187500.02, -187500.02, -172795.88, -187500.02, 0.00, 0.00, 0.00
58, -148102.55, -173675.00, -170617.39, -173857.03, -187500.02, -187500.02, -173417.41, -187500.02, 0.03, 0.90, 0.42
59, -149904.09, -176788.41, -170092.72, -174194.31, -187500.02, -187500.02, -172359.02, -187500.02, 0.00, 0.00, 0.00
60, -150927.09, -178538.75, -169798.98, -174379.45, -187500.02, -187500.02, -171768.39, -187500.02, 0.00, 0.00, 0.00
61, -149574.27, -176208.00, -170192.17, -174120.91, -187500.02, -187500.02, -172560.61, -187500.02, 0.00, 0.00, 0.00
62, -148038.45, -173575.91, -170622.08, -173837.67, -187500.02, -187500.02, -173446.94, -187500.02, 0.00, 0.00, 0.00
63, -149525.16, -176138.58, -170192.92, -174119.55, -187500.02, -187500.02, -172580.27, -187500.02, 0.00, 0.00, 0.00
64, -150917.19, -178518.61, -169792.42, -174374.00, -187500.02, -187500.02, -171776.66, -187500.02, 0.00, 0.00, 0.00
65, -149931.52, -176819.23, -170081.50, -174183.55, -187500.02, -187500.02, -172357.30, -187500.02, 0.00, 0.00, 0.00
66, -148088.39, -173667.75, -170598.16, -173838.88, -187500.02, -187500.02, -173417.28, -187500.02, 0.00, 0.00, 0.00
67, -149098.80, -175429.16, -170295.05, -174031.17, -187500.02, -187500.02, -172811.97, -187500.02, 0.00, 0.00, 0.00
68, -150808.89, -178355.27, -169804.59, -174346.66, -187500.02, -187500.02, -171823.94, -187500.02, 0.03, 0.90, 0.42
69, -150238.39, -177354.98, -169974.14, -174231.63, -187500.02, -187500.02, -172166.19, -187500.02, 0.00, 0.00, 0.00
70, -148252.80, -173948.28, -170534.06, -173856.83, -187500.02, -187500.02, -173313.31, -187500.02, 0.00, 0.00, 0.00
71, -148720.44, -174776.80, -170388.03, -173949.06, -187500.02, -187500.02, -173027.33, -187500.02, 0.00, 0.00, 0.00
72, -150633.61, -178067.53, -169837.89, -174307.25, -187500.02, -187500.02, -171915.28, -187500.02, 0.00, 0.00, 0.00
73, -150506.97, -177840.02, -169876.52, -174273.39, -187500.02, -187500.02, -171993.19, -187500.02, 0.00, 0.00, 0.00
74, -148513.92, -174415.81, -170441.70, -173895.31, -187500.02, -187500.02, -173146.33, -187500.02, 0.00, 0.00, 0.00
75, -148402.14, -174237.78, -170460.86, -173878.11, -187500.02, -187500.02, -173199.23, -187500.02, 0.00, 0.00, 0.00
76, -150402.41, -177674.95, -169882.23, -174249.13, -187500.02, -187500.02, -172033.70, -187500.02, 0.00, 0.00, 0.00
77, -150705.42, -178185.17, -169799.48, -174300.66, -187500.02, -187500.02, -171866.52, -187500.02, 0.00, 0.00, 0.00
78, -148850.61, -174997.36, -170338.03, -173953.05, -187500.02, -187500.02, -172952.86, -187500.02, 0.02, 0.90, 0.42
79, -148140.92, -173798.42, -170525.88, -173822.42, -187500.02, -187500.02, -173348.72, -187500.02, 0.00, 0.00, 0.00
80, -150075.50, -177130.75, -169963.80, -174183.20, -187500.02, -187500.02, -172215.27, -187500.02, 0.00, 0.00, 0.00
81, -150813.70, -178380.27, -169754.83, -174314.91, -187500.02, -187500.02, -171795.95, -187500.02, 0.00, 0.00, 0.00
82, -149197.16, -175595.41, -170221.02, -174007.81, -187500.02, -187500.02, -172740.33, -187500.02, 0.00, 0.00, 0.00
83, -147992.50, -173542.42, -170551.63, -173783.00, -187500.02, -187500.02, -173427.20, -187500.02, 0.00, 0.00, 0.00
84, -149707.59, -176507.34, -170051.59, -174104.75, -187500.02, -187500.02, -172418.84, -187500.02, 0.00, 0.00, 0.00
85, -150855.34, -178469.22, -169724.13, -174314.66, -187500.02, -187500.02, -171758.53, -187500.02, 0.00, 0.00, 0.00
86, -149587.95, -176284.47, -170091.22, -174070.06, -187500.02, -187500.02, -172499.00, -187500.02, 0.00, 0.00, 0.00
87, -147961.23, -173501.91, -170543.00, -173766.34, -187500.02, -187500.02, -173431.84, -187500.02, 0.00, 0.00, 0.00
88, -149344.77, -175888.16, -170145.25, -174031.55, -187500.02, -187500.02, -172627.20, -187500.02, 0.03, 0.90, 0.42
89, -150830.48, -178427.64, -169719.41, -174305.09, -187500.02, -187500.02, -171770.63, -187500.02, 0.00, 0.00, 0.00
90, -149948.97, -176909.14, -169974.28, -174131.14, -187500.02, -187500.02, -172285.34, -187500.02, 0.00, 0.00, 0.00
91, -148049.56, -173660.11, -170507.66, -173775.02, -187500.02, -187500.02, -173379.06, -187500.02, 0.00, 0.00, 0.00
92, -148930.63, -175196.36, -170243.42, -173944.95, -187500.02, -187500.02, -172852.11, -187500.02, 0.00, 0.00, 0.00
93, -150705.89, -178236.98, -169734.14, -174274.00, -187500.02, -187500.02, -171825.19, -187500.02, 0.00, 0.00, 0.00
94, -150247.97, -177434.98, -169870.38, -174179.97, -187500.02, -187500.02, -172100.30, -187500.02, 0.00, 0.00, 0.00
95, -148240.91, -173991.78, -170436.42, -173800.52, -187500.02, -187500.02, -173260.13, -187500.02, 0.00, 0.00, 0.00
96, -148561.95, -174565.91, -170332.98, -173866.25, -187500.02, -187500.02, -173060.72, -187500.02, 0.00, 0.00, 0.00
97, -150507.23, -177915.56, -169769.86, -174229.66, -187500.02, -187500.02, -171925.45, -187500.02, 0.00, 0.00, 0.00
98, -150487.27, -177873.03, -169774.41, -174214.44, -187500.02, -187500.02, -171938.53, -187500.02, 0.03, 0.90, 0.43
99, -148518.64, -174487.84, -170337.45, -173842.91, -187500.02, -187500.02, -173083.31, -187500.02, 0.00, 0.00, 0.00
100, -148243.53, -174035.08, -170398.61, -173792.81, -187500.02, -187500.02, -173224.98, -187500.02, 0.00, 0.00, 0.00
101, -150240.67, -177472.20, -169818.56, -174163.94, -187500.02, -187500.02, -172058.00, -187500.02, 0.00, 0.00, 0.00
102, -150664.36, -178187.88, -169700.42, -174238.45, -187500.02, -187500.02, -171820.63, -187500.02, 0.00, 0.00, 0.00
103, -148863.03, -175091.53, -170221.88, -173898.84, -187500.02, -187500.02, -172873.50, -187500.02, 0.00, 0.00, 0.00
104, -148022.80, -173668.36, -170448.86, -173745.06, -187500.02, -187500.02, -173348.48, -187500.02, 0.00, 0.00, 0.00
105, -149926.78, -176949.80, -169896.66, -174102.88, -187500.02, -187500.02, -172234.78, -187500.02, 0.00, 0.00, 0.00
106, -150772.25, -178387.23, -169654.61, -174254.75, -187500.02, -187500.02, -171750.63, -187500.02, 0.00, 0.00, 0.00
107, -149253.02, -175774.14, -170092.17, -173964.50, -187500.02, -187500.02, -172636.06, -187500.02, 0.00, 0.00, 0.00
108, -147913.11, -173484.41, -170466.67, -173717.13, -187500.02, -187500.02, -173408.03, -187500.02, 0.02, 0.90, 0.43
109, -149572.48, -176350.25, -169982.94, -174029.20, -187500.02, -187500.02, -172432.55, -187500.02, 0.00, 0.00, 0.00
110, -150796.13, -178442.42, -169631.56, -174253.19, -187500.02, -187500.02, -171726.45, -187500.02, 0.00, 0.00, 0.00
111, -149630.19, -176432.34, -169970.95, -174028.02, -187500.02, -187500.02, -172410.17, -187500.02, 0.00, 0.00, 0.00
112, -147910.03, -173487.39, -170454.89, -173710.17, -187500.02, -187500.02, -173404.14, -187500.02, 0.00, 0.00, 0.00
113, -149164.19, -175660.34, -170085.75, -173947.81, -187500.02, -187500.02, -172663.52, -187500.02, 0.00, 0.00, 0.00
114, -150732.77, -178345.34, -169634.17, -174236.78, -187500.02, -187500.02, -171755.69, -187500.02, 0.00, 0.00, 0.00
115, -149950.61, -176988.23, -169867.70, -174084.92, -187500.02, -187500.02, -172222.11, -187500.02, 0.00, 0.00, 0.00
116, -148015.19, -173672.72, -170412.58, -173720.44, -187500.02, -187500.02, -173337.66, -187500.02, 0.00, 0.00, 0.00
117, -148733.78, -174931.45, -170194.09, -173860.41, -187500.02, -187500.02, -172904.55, -187500.02, 0.03, 0.90, 0.42
118, -150579.66, -178098.41, -169660.70, -174201.72, -187500.02, -187500.02, -171831.83, -187500.02, 0.00, 0.00, 0.00
119, -150229.44, -177482.33, -169764.56, -174127.17, -187500.02, -187500.02, -172042.31, -187500.02, 0.00, 0.00, 0.00
120, -148227.98, -174048.20, -170333.67, -173749.94, -187500.02, -187500.02, -173202.50, -187500.02, 0.00, 0.00, 0.00
121, -148408.77, -174379.88, -170270.05, -173788.30, -187500.02, -187500.02, -173083.72, -187500.02, 0.00, 0.00, 0.00
122, -150387.42, -177780.67, -169700.11, -174159.78, -187500.02, -187500.02, -171932.39, -187500.02, 0.00, 0.00, 0.00
123, -150498.69, -177957.45, -169674.39, -174173.70, -187500.02, -187500.02, -171878.66, -187500.02, 0.00, 0.00, 0.00
124, -148561.89, -174629.19, -170228.95, -173807.03, -187500.02, -187500.02, -173005.78, -187500.02, 0.00, 0.00, 0.00
125, -148129.94, -173908.56, -170334.77, -173727.63, -187500.02, -187500.02, -173238.31, -187500.02, 0.00, 0.00, 0.00
126, -150120.22, -177337.38, -169756.36, -174098.31, -187500.02, -187500.02, -172072.64, -187500.02, 0.00, 0.00, 0.00
127, -150644.63, -178227.31, -169607.92, -174190.98, -187500.02, -187500.02, -171774.61, -187500.02, 0.03, 0.90, 0.43
128, -148905.02, -175233.41, -170108.03, -173858.64, -187500.02, -187500.02, -172788.20, -187500.02, 0.00, 0.00, 0.00
129, -147914.66, -173546.16, -170377.53, -173674.92, -187500.02, -187500.02, -173350.38, -187500.02, 0.00, 0.00, 0.00
130, -149755.78, -176721.33, -169844.39, -174022.23, -187500.02, -187500.02, -172273.67, -187500.02, 0.00, 0.00, 0.00
131, -150716.78, -178357.50, -169573.53, -174198.89, -187500.02, -187500.02, -171727.13, -187500.02, 0.00, 0.00, 0.00
132, -149261.75, -175853.89, -169994.16, -173921.42, -187500.02, -187500.02, -172576.94, -187500.02, 0.00, 0.00, 0.00
133, -147827.02, -173404.17, -170394.77, -173655.19, -187500.02, -187500.02, -173402.19, -187500.02, 0.00, 0.00, 0.00
134, -149378.88, -176086.72, -169939.34, -173946.33, -187500.02, -187500.02, -172486.69, -187500.02, 0.00, 0.00, 0.00
135, -150720.02, -178374.94, -169556.84, -174193.48, -187500.02, -187500.02, -171715.81, -187500.02, 0.00, 0.00, 0.00
136, -149646.98, -176521.36, -169870.53, -173985.17, -187500.02, -187500.02, -172346.86, -187500.02, 0.00, 0.00, 0.00
137, -147861.83, -173467.72, -170371.52, -173652.23, -187500.02, -187500.02, -173375.91, -187500.02, 0.03, 0.89, 0.42
138, -148991.03, -175427.73, -170034.77, -173864.47, -187500.02, -187500.02, -172703.45, -187500.02, 0.00, 0.00, 0.00
139, -150642.92, -178256.09, -169559.72, -174169.50, -187500.02, -187500.02, -171746.58, -187500.02, 0.00, 0.00, 0.00
140, -149985.98, -177117.19, -169755.81, -174040.20, -187500.02, -187500.02, -172138.59, -187500.02, 0.00, 0.00, 0.00
141, -148009.31, -173727.30, -170313.42, -173667.14, -187500.02, -187500.02, -173280.95, -187500.02, 0.00, 0.00, 0.00
142, -148609.33, -174779.89, -170126.75, -173783.02, -187500.02, -187500.02, -172914.77, -187500.02, 0.00, 0.00, 0.00
143, -150490.25, -178005.98, -169588.31, -174133.88, -187500.02, -187500.02, -171826.13, -187500.02, 0.00, 0.00, 0.00
144, -150266.41, -177603.98, -169662.56, -174086.05, -187500.02, -187500.02, -171970.58, -187500.02, 0.00, 0.00, 0.00
145, -148257.39, -174152.83, -170234.64, -173705.77, -187500.02, -187500.02, -173135.53, -187500.02, 0.00, 0.00, 0.00
146, -148258.53, -174179.00, -170215.28, -173706.55, -187500.02, -187500.02, -173113.20, -187500.02, 0.00, 0.00, 0.00
147, -150249.73, -177606.17, -169637.27, -174078.33, -187500.02, -187500.02, -171949.42, -187500.02, 0.03, 0.90, 0.42
148, -150460.70, -177952.02, -169580.05, -174109.28, -187500.02, -187500.02, -171835.72, -187500.02, 0.00, 0.00, 0.00
149, -148559.72, -174681.83, -170127.03, -173749.17, -187500.02, -187500.02, -172944.19, -187500.02, 0.00, 0.00, 0.00
150, -147986.94, -173717.11, -170279.25, -173645.89, -187500.02, -187500.02, -173264.80, -187500.02, 0.00, 0.00, 0.00
151, -149956.70, -177104.02, -169713.22, -174015.92, -187500.02, -187500.02, -172118.23, -187500.02, 0.00, 0.00, 0.00
152, -150614.63, -178218.08, -169528.56, -174133.97, -187500.02, -187500.02, -171745.13, -187500.02, 0.00, 0.00, 0.00
153, -148945.45, -175347.53, -170009.95, -173815.25, -187500.02, -187500.02, -172719.66, -187500.02, 0.00, 0.00, 0.00
154, -147830.39, -173447.23, -170315.75, -173608.67, -187500.02, -187500.02, -173356.64, -187500.02, 0.00, 0.00, 0.00
155, -149630.16, -176550.92, -169792.88, -173947.33, -187500.02, -187500.02, -172301.59, -187500.02, 0.00, 0.00, 0.00
156, -150675.83, -178334.22, -169495.48, -174138.28, -187500.02, -187500.02, -171701.47, -187500.02, 0.00, 0.00, 0.00
157, -149333.47, -176024.23, -169883.28, -173879.22, -187500.02, -187500.02, -172483.78, -187500.02, 0.02, 0.90, 0.43
158, -147772.23, -173350.48, -170320.44, -173587.69, -187500.02, -187500.02, -173384.13, -187500.02, 0.00, 0.00, 0.00
159, -149239.22, -175885.78, -169889.02, -173862.95, -187500.02, -187500.02, -172517.98, -187500.02, 0.00, 0.00, 0.00
160, -150646.42, -178293.91, -169483.30, -174121.30, -187500.02, -187500.02, -171703.97, -187500.02, 0.00, 0.00, 0.00
161, -149670.78, -176607.88, -169769.83, -173931.91, -187500.02, -187500.02, -172279.97, -187500.02, 0.00, 0.00, 0.00
162, -147814.52, -173431.78, -170290.88, -173584.47, -187500.02, -187500.02, -173348.92, -187500.02, 0.00, 0.00, 0.00
163, -148789.09, -175126.27, -170002.38, -173771.33, -187500.02, -187500.02, -172770.70, -187500.02, 0.00, 0.00, 0.00
164, -150523.50, -178096.55, -169501.03, -174090.22, -187500.02, -187500.02, -171762.78, -187500.02, 0.00, 0.00, 0.00
165, -149943.44, -177084.39, -169672.72, -173973.48, -187500.02, -187500.02, -172109.00, -187500.02, 0.00, 0.00, 0.00
166, -147966.69, -173696.31, -170232.53, -173601.09, -187500.02, -187500.02, -173253.33, -187500.02, 0.00, 0.00, 0.00
167, -148408.22, -174479.81, -170092.25, -173688.84, -187500.02, -187500.02, -172980.81, -187500.02, 0.02, 0.89, 0.43
168, -150345.11, -177802.98, -169537.33, -174050.80, -187500.02, -187500.02, -171858.53, -187500.02, 0.00, 0.00, 0.00
169, -150246.72, -177620.50, -169570.36, -174023.34, -187500.02, -187500.02, -171922.97, -187500.02, 0.00, 0.00, 0.00
170, -148253.58, -174198.73, -170139.19, -173646.36, -187500.02, -187500.02, -173080.64, -187500.02, 0.00, 0.00, 0.00
171, -148116.91, -173980.31, -170165.59, -173624.45, -187500.02, -187500.02, -173147.64, -187500.02, 0.00, 0.00, 0.00
172, -150123.78, -177427.94, -169588.73, -174002.20, -187500.02, -187500.02, -171981.05, -187500.02, 0.00, 0.00, 0.00
173, -150446.25, -177969.97, -169498.80, -174054.38, -187500.02, -187500.02, -171801.00, -187500.02, 0.00, 0.00, 0.00
174, -148594.77, -174789.36, -170029.16, -173701.86, -187500.02, -187500.02, -172877.73, -187500.02, 0.00, 0.00, 0.00
175, -147861.05, -173548.17, -170225.56, -173568.31, -187500.02, -187500.02, -173290.86, -187500.02, 0.00, 0.00, 0.00
176, -149797.14, -176882.25, -169668.33, -173933.56, -187500.02, -187500.02, -172163.17, -187500.02, 0.00, 0.00, 0.00
177, -150556.56, -178172.39, -169453.53, -174071.20, -187500.02, -187500.02, -171731.42, -187500.02, 0.03, 0.89, 0.43
178, -148952.47, -175410.27, -169915.19, -173763.28, -187500.02, -187500.02, -172667.36, -187500.02, 0.00, 0.00, 0.00
179, -147718.34, -173305.88, -170254.86, -173533.11, -187500.02, -187500.02, -173372.08, -187500.02, 0.00, 0.00, 0.00
180, -149434.55, -176270.39, -169755.22, -173856.59, -187500.02, -187500.02, -172363.91, -187500.02, 0.00, 0.00, 0.00
181, -150594.78, -178249.81, -169425.17, -174070.31, -187500.02, -187500.02, -171698.66, -187500.02, 0.00, 0.00, 0.00
182, -149346.30, -176100.14, -169788.11, -173831.17, -187500.02, -187500.02, -172430.50, -187500.02, 0.00, 0.00, 0.00
183, -147697.22, -173282.52, -170247.52, -173522.20, -187500.02, -187500.02, -173379.34, -187500.02, 0.00, 0.00, 0.00
184, -149061.63, -175641.91, -169847.08, -173779.94, -187500.02, -187500.02, -172575.31, -187500.02, 0.00, 0.00, 0.00
185, -150557.39, -178200.75, -169416.25, -174055.06, -187500.02, -187500.02, -171708.89, -187500.02, 0.00, 0.00, 0.00
186, -149704.45, -176730.00, -169665.00, -173886.66, -187500.02, -187500.02, -172208.83, -187500.02, 0.00, 0.00, 0.00
187, -147788.20, -173448.22, -170206.69, -173529.34, -187500.02, -187500.02, -173317.64, -187500.02, 0.03, 0.90, 0.43
188, -148667.06, -174972.33, -169949.88, -173701.03, -187500.02, -187500.02, -172801.75, -187500.02, 0.00, 0.00, 0.00
189, -150442.36, -178013.41, -169439.31, -174030.30, -187500.02, -187500.02, -171773.83, -187500.02, 0.00, 0.00, 0.00
190, -150005.25, -177251.31, -169571.64, -173942.05, -187500.02, -187500.02, -172038.78, -187500.02, 0.00, 0.00, 0.00
191, -147989.47, -173793.97, -170144.13, -173562.39, -187500.02, -187500.02, -173207.27, -187500.02, 0.00, 0.00, 0.00
192, -148270.53, -174301.28, -170048.06, -173618.73, -187500.02, -187500.02, -173025.45, -187500.02, 0.00, 0.00, 0.00
193, -150225.69, -177662.77, -169480.08, -173980.30, -187500.02, -187500.02, -171882.94, -187500.02, 0.00, 0.00, 0.00
194, -150221.67, -177640.75, -169483.92, -173970.28, -187500.02, -187500.02, -171892.39, -187500.02, 0.00, 0.00, 0.00
195, -148255.67, -174262.48, -170049.42, -173600.92, -187500.02, -187500.02, -173039.94, -187500.02, 0.00, 0.00, 0.00
196, -147957.23, -173771.59, -170120.84, -173548.97, -187500.02, -187500.02, -173199.75, -187500.02, 0.00, 0.00, 0.00
197, -149952.75, -177206.13, -169541.98, -173922.41, -187500.02, -187500.02, -172033.50, -187500.02, 0.03, 0.90, 0.41
198, -150408.59, -177972.05, -169419.00, -174002.42, -187500.02, -187500.02, -171781.69, -187500.02, 0.00, 0.00, 0.00
199, -148619.78, -174895.98, -169937.22, -173663.97, -187500.02, -187500.02, -172827.02, -187500.02, 0.00, 0.00, 0.00
200, -147756.89, -173432.34, -170169.86, -173505.17, -187500.02, -187500.02, -173314.55, -187500.02, 0.00, 0.00, 0.00
201, -149659.08, -176708.44, -169613.56, -173858.25, -187500.02, -187500.02, -172197.36, -187500.02, 0.00, 0.00, 0.00
202, -150513.77, -178165.19, -169366.03, -174010.88, -187500.02, -187500.02, -171704.17, -187500.02, 0.00, 0.00, 0.00
203, -149007.45, -175578.13, -169800.88, -173722.11, -187500.02, -187500.02, -172582.81, -187500.02, 0.00, 0.00, 0.00
204, -147635.92, -173235.84, -170184.88, -173469.09, -187500.02, -187500.02, -173372.55, -187500.02, 0.00, 0.00, 0.00
205, -149283.20, -176079.44, -169705.30, -173779.11, -187500.02, -187500.02, -172404.03, -187500.02, 0.00, 0.00, 0.00
206, -150522.13, -178193.28, -169349.58, -174005.33, -187500.02, -187500.02, -171689.70, -187500.02, 0.03, 0.90, 0.42
207, -149357.75, -176185.08, -169685.03, -173779.28, -187500.02, -187500.02, -172369.55, -187500.02, 0.00, 0.00, 0.00
208, -147625.36, -173219.28, -170170.44, -173455.14, -187500.02, -187500.02, -173368.69, -187500.02, 0.00, 0.00, 0.00
209, -148821.73, -175291.81, -169821.06, -173684.58, -187500.02, -187500.02, -172665.52, -187500.02, 0.00, 0.00, 0.00
210, -150431.84, -178049.56, -169362.09, -173984.56, -187500.02, -187500.02, -171737.23, -187500.02, 0.00, 0.00, 0.00
211, -149619.22, -176641.88, -169600.78, -173825.13, -187500.02, -187500.02, -172216.55, -187500.02, 0.00, 0.00, 0.00
212, -147723.50, -173392.89, -170138.92, -173471.17, -187500.02, -187500.02, -173313.98, -187500.02, 0.00, 0.00, 0.00
213, -148422.86, -174613.72, -169923.25, -173602.89, -187500.02, -187500.02, -172890.64, -187500.02, 0.00, 0.00, 0.00
214, -150291.94, -177815.25, -169384.17, -173948.33, -187500.02, -187500.02, -171805.83, -187500.02, 0.00, 0.00, 0.00
215, -149985.47, -177277.61, -169476.98, -173883.06, -187500.02, -187500.02, -171991.59, -187500.02, 0.00, 0.00, 0.00
216, -147971.25, -173825.64, -170051.80, -173504.78, -187500.02, -187500.02, -173160.33, -187500.02, 0.03, 0.90, 0.42
217, -148126.34, -174111.81, -169998.75, -173541.11, -187500.02, -187500.02, -173059.61, -187500.02, 0.00, 0.00, 0.00
218, -150113.13, -177519.19, -169428.59, -173911.66, -187500.02, -187500.02, -171906.36, -187500.02, 0.00, 0.00, 0.00
219, -150235.19, -177709.91, -169400.09, -173926.98, -187500.02, -187500.02, -171847.52, -187500.02, 0.00, 0.00, 0.00
220, -148299.39, -174384.70, -169953.70, -173560.23, -187500.02, -187500.02, -172973.48, -187500.02, 0.00, 0.00, 0.00
221, -147838.45, -173615.52, -170066.53, -173474.55, -187500.02, -187500.02, -173221.19, -187500.02, 0.00, 0.00, 0.00
222, -149822.42, -177035.41, -169488.59, -173844.36, -187500.02, -187500.02, -172056.34, -187500.02, 0.00, 0.00, 0.00
223, -150373.09, -177966.86, -169336.72, -173941.83, -187500.02, -187500.02, -171747.09, -187500.02, 0.00, 0.00, 0.00
224, -148646.03, -174991.36, -169838.14, -173614.33, -187500.02, -187500.02, -172758.06, -187500.02, 0.00, 0.00, 0.00
225, -147638.03, -173273.94, -170112.23, -173427.33, -187500.02, -187500.02, -173330.19, -187500.02, 0.00, 0.00, 0.00
226, -149477.84, -176444.13, -169575.22, -173769.42, -187500.02, -187500.02, -172249.88, -187500.02, 0.03, 0.90, 0.42
227, -150445.61, -178092.70, -169298.66, -173945.05, -187500.02, -187500.02, -171694.52, -187500.02, 0.00, 0.00, 0.00
228, -149013.17, -175628.61, -169716.64, -173672.80, -187500.02, -187500.02, -172534.88, -187500.02, 0.00, 0.00, 0.00
229, -147550.70, -173132.73, -170126.91, -173403.11, -187500.02, -187500.02, -173377.69, -187500.02, 0.00, 0.00, 0.00
230, -149094.59, -175798.63, -169677.66, -173695.44, -187500.02, -187500.02, -172471.23, -187500.02, 0.00, 0.00, 0.00
231, -150444.06, -178099.98, -169290.25, -173941.69, -187500.02, -187500.02, -171692.17, -187500.02, 0.00, 0.00, 0.00
232, -149392.28, -176282.03, -169599.69, -173739.19, -187500.02, -187500.02, -172312.88, -187500.02, 0.00, 0.00, 0.00
233, -147590.08, -173196.55, -170105.11, -173400.48, -187500.02, -187500.02, -173351.86, -187500.02, 0.00, 0.00, 0.00
234, -148703.02, -175124.28, -169777.34, -173611.92, -187500.02, -187500.02, -172693.64, -187500.02, 0.00, 0.00, 0.00
235, -150364.41, -177969.86, -169303.86, -173922.20, -187500.02, -187500.02, -171735.63, -187500.02, 0.00, 0.00, 0.00
236, -149715.56, -176847.83, -169495.70, -173793.95, -187500.02, -187500.02, -172120.00, -187500.02, 0.03, 0.90, 0.42
237, -147735.75, -173454.27, -170055.55, -173423.31, -187500.02, -187500.02, -173265.11, -187500.02, 0.00, 0.00, 0.00
238, -148302.36, -174442.34, -169884.92, -173534.63, -187500.02, -187500.02, -172927.19, -187500.02, 0.00, 0.00, 0.00
239, -150197.95, -177691.16, -169339.06, -173885.03, -187500.02, -187500.02, -171826.22, -187500.02, 0.00, 0.00, 0.00
240, -149985.44, -177312.09, -169406.69, -173837.92, -187500.02, -187500.02, -171959.36, -187500.02, 0.00, 0.00, 0.00
241, -147980.33, -173872.63, -169979.69, -173460.55, -187500.02, -187500.02, -173123.39, -187500.02, 0.00, 0.00, 0.00
242, -147968.13, -173875.67, -169970.19, -173463.80, -187500.02, -187500.02, -173115.03, -187500.02, 0.00, 0.00, 0.00
243, -149966.20, -177308.41, -169391.30, -173834.73, -187500.02, -187500.02, -171948.64, -187500.02, 0.00, 0.00, 0.00
244, -150206.83, -177702.02, -169325.80, -173870.77, -187500.02, -187500.02, -171817.39, -187500.02, 0.00, 0.00, 0.00
245, -148316.69, -174453.50, -169869.91, -173513.45, -187500.02, -187500.02, -172919.50, -187500.02, 0.00, 0.00, 0.00
246, -147712.38, -173437.28, -170028.27, -173402.86, -187500.02, -187500.02, -173254.84, -187500.02, 0.03, 0.89, 0.42
247, -149678.31, -176822.92, -169459.50, -173771.70, -187500.02, -187500.02, -172104.45, -187500.02, 0.00, 0.00, 0.00
248, -150345.06, -177954.33, -169271.75, -173889.34, -187500.02, -187500.02, -171724.45, -187500.02, 0.00, 0.00, 0.00
249, -148693.88, -175111.36, -169751.75, -173575.86, -187500.02, -187500.02, -172691.30, -187500.02, 0.00, 0.00, 0.00
250, -147557.55, -173171.78, -170065.13, -173366.42, -187500.02, -187500.02, -173341.17, -187500.02, 0.00, 0.00, 0.00
251, -149342.75, -176249.22, -169542.27, -173697.91, -187500.02, -187500.02, -172288.78, -187500.02, 0.00, 0.00, 0.00
252, -150409.27, -178069.44, -169237.03, -173891.81, -187500.02, -187500.02, -171673.59, -187500.02, 0.00, 0.00, 0.00
253, -149081.97, -175784.44, -169625.22, -173637.83, -187500.02, -187500.02, -172452.16, -187500.02, 0.00, 0.00, 0.00
254, -147507.94, -173092.00, -170067.00, -173345.08, -187500.02, -187500.02, -173358.77, -187500.02, 0.00, 0.00, 0.00
255, -148963.22, -175606.41, -169644.64, -173621.59, -187500.02, -187500.02, -172503.56, -187500.02, 0.00, 0.00, 0.00
0, -150396.88, -178053.44, -169236.66, -173887.02, -187500.02, -187500.02, -171678.45, -187500.02, 0.03, 0.89, 0.41
1, -149456.19, -176425.36, -169514.50, -173705.53, -187500.02, -187500.02, -172233.86, -187500.02, 0.00, 0.00, 0.00
2, -147588.61, -173226.95, -170041.05, -173355.52, -187500.02, -187500.02, -173311.67, -187500.02, 0.00, 0.00, 0.00
3, -148577.38, -174943.92, -169749.05, -173544.02, -187500.02, -187500.02, -172723.66, -187500.02, 0.00, 0.00, 0.00
4, -150304.91, -177902.77, -169253.81, -173864.63, -187500.02, -187500.02, -171721.61, -187500.02, 0.00, 0.00, 0.00
5, -149772.75, -176977.19, -169412.97, -173757.63, -187500.02, -187500.02, -172037.86, -187500.02, 0.00, 0.00, 0.00
6, -147771.20, -173547.47, -169980.34, -173382.00, -187500.02, -187500.02, -173195.08, -187500.02, 0.00, 0.00, 0.00
7, -148193.31, -174290.66, -169849.14, -173465.48, -187500.02, -187500.02, -172936.42, -187500.02, 0.00, 0.00, 0.00
8, -150133.75, -177615.41, -169295.89, -173829.05, -187500.02, -187500.02, -171812.63, -187500.02, 0.00, 0.00, 0.00
9, -150041.63, -177441.42, -169334.19, -173808.52, -187500.02, -187500.02, -171880.19, -187500.02, 0.00, 0.00, 0.00
10, -148058.86, -174036.31, -169905.02, -173436.72, -187500.02, -187500.02, -173035.17, -187500.02, 0.03, 0.90, 0.42
11, -147896.44, -173776.25, -169941.17, -173412.73, -187500.02, -187500.02, -173116.06, -187500.02, 0.00, 0.00, 0.00
12, -149901.75, -177225.72, -169359.78, -173784.94, -187500.02, -187500.02, -171940.19, -187500.02, 0.00, 0.00, 0.00
13, -150262.33, -177827.55, -169263.45, -173845.58, -187500.02, -187500.02, -171740.30, -187500.02, 0.00, 0.00, 0.00
14, -148427.17, -174669.09, -169796.72, -173500.20, -187500.02, -187500.02, -172814.72, -187500.02, 0.00, 0.00, 0.00
15, -147685.02, -173411.06, -169999.31, -173366.77, -187500.02, -187500.02, -173235.20, -187500.02, 0.00, 0.00, 0.00
16, -149620.41, -176750.14, -169435.45, -173729.39, -187500.02, -187500.02, -172095.58, -187500.02, 0.00, 0.00, 0.00
17, -150395.08, -178066.22, -169216.88, -173868.61, -187500.02, -187500.02, -171652.34, -187500.02, 0.00, 0.00, 0.00
18, -148816.48, -175345.05, -169677.86, -173568.42, -187500.02, -187500.02, -172578.50, -187500.02, 0.00, 0.00, 0.00
19, -147556.17, -173194.75, -170027.69, -173335.05, -187500.02, -187500.02, -173300.09, -187500.02, 0.00, 0.00, 0.00
20, -149260.05, -176133.14, -169535.67, -173656.64, -187500.02, -187500.02, -172302.31, -187500.02, 0.03, 0.90, 0.42
21, -150440.91, -178149.45, -169198.05, -173872.36, -187500.02, -187500.02, -171620.28, -187500.02, 0.00, 0.00, 0.00
22, -149193.03, -175998.34, -169565.73, -173634.31, -187500.02, -187500.02, -172356.28, -187500.02, 0.00, 0.00, 0.00
23, -147542.39, -173173.36, -170031.06, -173327.77, -187500.02, -187500.02, -173311.13, -187500.02, 0.00, 0.00, 0.00
24, -148873.81, -175478.44, -169639.92, -173580.89, -187500.02, -187500.02, -172524.92, -187500.02, 0.00, 0.00, 0.00
25, -150405.02, -178097.91, -169202.83, -173865.97, -187500.02, -187500.02, -171643.20, -187500.02, 0.00, 0.00, 0.00
26, -149558.11, -176636.83, -169451.97, -173701.69, -187500.02, -187500.02, -172144.09, -187500.02, 0.00, 0.00, 0.00
27, -147640.02, -173353.80, -169991.30, -173339.53, -187500.02, -187500.02, -173250.78, -187500.02, 0.00, 0.00, 0.00
28, -148480.20, -174818.34, -169739.67, -173499.42, -187500.02, -187500.02, -172747.81, -187500.02, 0.00, 0.00, 0.00
29, -150276.06, -177897.39, -169225.00, -173834.52, -187500.02, -187500.02, -171708.08, -187500.02, 0.03, 0.90, 0.42
30, -149855.36, -177160.13, -169350.16, -173747.88, -187500.02, -187500.02, -171962.77, -187500.02, 0.00, 0.00, 0.00
31, -147839.28, -173702.58, -169919.88, -173368.66, -187500.02, -187500.02, -173132.47, -187500.02, 0.00, 0.00, 0.00
32, -148103.81, -174188.03, -169827.45, -173422.86, -187500.02, -187500.02, -172962.83, -187500.02, 0.00, 0.00, 0.00
33, -150055.39, -177551.95, -169260.17, -173786.19, -187500.02, -187500.02, -171821.97, -187500.02, 0.00, 0.00, 0.00
34, -150070.08, -177566.47, -169260.64, -173781.95, -187500.02, -187500.02, -171822.75, -187500.02, 0.00, 0.00, 0.00
35, -148105.98, -174187.30, -169824.53, -173410.23, -187500.02, -187500.02, -172969.95, -187500.02, 0.00, 0.00, 0.00
36, -147778.13, -173641.58, -169902.78, -173352.30, -187500.02, -187500.02, -173147.83, -187500.02, 0.00, 0.00, 0.00
37, -149769.06, -177072.30, -169321.19, -173724.09, -187500.02, -187500.02, -171982.75, -187500.02, 0.00, 0.00, 0.00
38, -150218.48, -177838.50, -169188.59, -173798.98, -187500.02, -187500.02, -171724.73, -187500.02, 0.00, 0.00, 0.00
39, -148420.86, -174755.67, -169702.06, -173456.84, -187500.02, -187500.02, -172771.58, -187500.02, 0.03, 0.90, 0.42
40, -147529.39, -173244.34, -169941.36, -173292.83, -187500.02, -187500.02, -173277.58, -187500.02, 0.00, 0.00, 0.00
41, -149404.70, -176483.94, -169389.25, -173643.20, -187500.02, -187500.02, -172171.39, -187500.02, 0.00, 0.00, 0.00
42, -150286.47, -177987.25, -169135.91, -173801.33, -187500.02, -187500.02, -171666.42, -187500.02, 0.00, 0.00, 0.00
43, -148781.23, -175393.27, -169568.98, -173509.81, -187500.02, -187500.02, -172546.86, -187500.02, 0.00, 0.00, 0.00
44, -147402.39, -173037.52, -169949.77, -173253.70, -187500.02, -187500.02, -173341.08, -187500.02, 0.00, 0.00, 0.00
45, -149024.97, -175848.14, -169472.28, -173560.00, -187500.02, -187500.02, -172385.39, -187500.02, 0.00, 0.00, 0.00
46, -150277.28, -177997.02, -169108.59, -173790.17, -187500.02, -187500.02, -171660.03, -187500.02, 0.00, 0.00, 0.00
47, -149137.97, -176032.09, -169439.89, -173568.86, -187500.02, -187500.02, -172329.73, -187500.02, 0.00, 0.00, 0.00
48, -147388.98, -173031.73, -169930.89, -173240.28, -187500.02, -187500.02, -173343.63, -187500.02, 0.00, 0.00, 0.00
49, -148600.61, -175137.52, -169564.00, -173466.58, -187500.02, -187500.02, -172619.75, -187500.02, 0.03, 0.90, 0.41
50, -150179.84, -177847.27, -169103.86, -173757.25, -187500.02, -187500.02, -171701.92, -187500.02, 0.00, 0.00, 0.00
51, -149434.11, -176559.02, -169320.81, -173609.44, -187500.02, -187500.02, -172140.91, -187500.02, 0.00, 0.00, 0.00
52, -147476.67, -173200.94, -169876.47, -173240.92, -187500.02, -187500.02, -173277.05, -187500.02, 0.00, 0.00, 0.00
53, -148166.94, -174405.06, -169667.44, -173374.86, -187500.02, -187500.02, -172865.33, -187500.02, 0.00, 0.00, 0.00
54, -150011.72, -177573.41, -169129.55, -173716.98, -187500.02, -187500.02, -171789.56, -187500.02, 0.00, 0.00, 0.00
55, -149698.25, -177020.33, -169222.30, -173649.25, -187500.02, -187500.02, -171981.09, -187500.02, 0.00, 0.00, 0.00
56, -147682.23, -173557.48, -169794.73, -173266.52, -187500.02, -187500.02, -173150.53, -187500.02, 0.00, 0.00, 0.00
57, -147801.08, -173786.14, -169747.56, -173292.08, -187500.02, -187500.02, -173065.89, -187500.02, 0.00, 0.00, 0.00
58, -149782.41, -177194.78, -169174.48, -173662.55, -187500.02, -187500.02, -171910.38, -187500.02, 0.00, 0.00, 0.00
59, -149925.38, -177421.66, -169138.64, -173682.08, -187500.02, -187500.02, -171837.50, -187500.02, 0.03, 0.91, 0.41
60, -147999.66, -174103.67, -169690.06, -173313.61, -187500.02, -187500.02, -172958.83, -187500.02, 0.00, 0.00, 0.00
61, -147517.03, -173294.72, -169810.98, -173224.52, -187500.02, -187500.02, -173221.08, -187500.02, 0.00, 0.00, 0.00
62, -149499.48, -176713.58, -169234.53, -173595.89, -187500.02, -187500.02, -172059.13, -187500.02, 0.00, 0.00, 0.00
63, -150059.30, -177658.78, -169076.44, -173692.78, -187500.02, -187500.02, -171740.61, -187500.02, 0.00, 0.00, 0.00
64, -148344.20, -174699.34, -169577.14, -173366.00, -187500.02, -187500.02, -172745.92, -187500.02, 0.00, 0.00, 0.00
65, -147320.03, -172948.50, -169861.66, -173176.02, -187500.02, -187500.02, -173330.84, -187500.02, 0.00, 0.00, 0.00
66, -149142.14, -176092.72, -169333.95, -173521.86, -187500.02, -187500.02, -172261.73, -187500.02, 0.00, 0.00, 0.00
67, -150138.23, -177789.02, -169049.97, -173703.69, -187500.02, -187500.02, -171690.50, -187500.02, 0.00, 0.00, 0.00
68, -148716.92, -175327.69, -169465.42, -173429.22, -187500.02, -187500.02, -172526.78, -187500.02, 0.00, 0.00, 0.00
69, -147261.64, -172832.09, -169878.86, -173159.55, -187500.02, -187500.02, -173368.86, -187500.02, 0.03, 0.91, 0.42
70, -148784.38, -175472.92, -169438.42, -173449.38, -187500.02, -187500.02, -172469.83, -187500.02, 0.00, 0.00, 0.00
71, -150153.77, -177819.23, -169047.06, -173702.67, -187500.02, -187500.02, -171674.84, -187500.02, 0.00, 0.00, 0.00
72, -149126.00, -176026.84, -169354.17, -173503.73, -187500.02, -187500.02, -172286.75, -187500.02, 0.00, 0.00, 0.00
73, -147335.31, -172938.77, -169862.56, -173165.70, -187500.02, -187500.02, -173326.73, -187500.02, 0.00, 0.00, 0.00
74, -148430.38, -174842.83, -169539.41, -173374.55, -187500.02, -187500.02, -172674.19, -187500.02, 0.00, 0.00, 0.00
75, -150098.83, -177713.84, -169062.20, -173686.70, -187500.02, -187500.02, -171703.28, -187500.02, 0.00, 0.00, 0.00
76, -149477.64, -176636.36, -169251.36, -173565.45, -187500.02, -187500.02, -172072.58, -187500.02, 0.00, 0.00, 0.00
77, -147510.13, -173247.45, -169815.45, -173194.72, -187500.02, -187500.02, -173217.59, -187500.02, 0.00, 0.00, 0.00
78, -148081.42, -174236.02, -169648.08, -173307.02, -187500.02, -187500.02, -172878.38, -187500.02, 0.00, 0.00, 0.00
79, -149976.94, -177489.70, -169106.05, -173662.31, -187500.02, -187500.02, -171776.61, -187500.02, 0.03, 0.90, 0.42
80, -149789.70, -177153.91, -169168.70, -173619.88, -187500.02, -187500.02, -171893.38, -187500.02, 0.00, 0.00, 0.00
81, -147798.45, -173723.83, -169746.89, -173247.61, -187500.02, -187500.02, -173058.95, -187500.02, 0.00, 0.00, 0.00
82, -147768.72, -173690.80, -169747.14, -173248.30, -187500.02, -187500.02, -173064.61, -187500.02, 0.00, 0.00, 0.00
83, -149771.56, -177138.59, -169175.59, -173627.14, -187500.02, -187500.02, -171899.59, -187500.02, 0.00, 0.00, 0.00
84, -150023.27, -177553.98, -169117.09, -173671.42, -187500.02, -187500.02, -171767.27, -187500.02, 0.00, 0.00, 0.00
85, -148150.02, -174317.98, -169664.83, -173317.05, -187500.02, -187500.02, -172866.86, -187500.02, 0.00, 0.00, 0.00
86, -147537.17, -173274.98, -169827.91, -173204.31, -187500.02, -187500.02, -173209.19, -187500.02, 0.00, 0.00, 0.00
87, -149489.95, -176646.28, -169258.06, -173569.09, -187500.02, -187500.02, -172058.58, -187500.02, 0.00, 0.00, 0.00
88, -150181.50, -177823.47, -169067.41, -173693.70, -187500.02, -187500.02, -171664.23, -187500.02, 0.00, 0.00, 0.00
89, -148539.66, -174993.36, -169552.42, -173383.61, -187500.02, -187500.02, -172629.02, -187500.02, 0.03, 0.90, 0.43
90, -147403.36, -173049.70, -169870.17, -173173.69, -187500.02, -187500.02, -173280.42, -187500.02, 0.00, 0.00, 0.00
91, -149177.89, -176111.09, -169355.41, -173511.06, -187500.02, -187500.02, -172239.31, -187500.02, 0.00, 0.00, 0.00
92, -150272.81, -177976.66, -169046.59, -173713.14, -187500.02, -187500.02, -171612.16, -187500.02, 0.00, 0.00, 0.00
93, -148959.98, -175707.53, -169435.25, -173459.81, -187500.02, -187500.02, -172384.56, -187500.02, 0.00, 0.00, 0.00
94, -147385.70, -173013.89, -169879.41, -173165.44, -187500.02, -187500.02, -173288.78, -187500.02, 0.00, 0.00, 0.00
95, -148813.69, -175493.23, -169458.73, -173435.22, -187500.02, -187500.02, -172438.73, -187500.02, 0.00, 0.00, 0.00
96, -150273.05, -177987.20, -169049.23, -173712.00, -187500.02, -187500.02, -171603.72, -187500.02, 0.00, 0.00, 0.00
97, -149351.78, -176382.19, -169328.98, -173535.50, -187500.02, -187500.02, -172156.39, -187500.02, 0.00, 0.00, 0.00
98, -147495.92, -173188.28, -169860.48, -173186.83, -187500.02, -187500.02, -173235.11, -187500.02, 0.00, 0.00, 0.00
99, -148460.86, -174871.33, -169575.97, -173372.97, -187500.02, -187500.02, -172658.41, -187500.02, 0.03, 0.90, 0.43
100, -150196.47, -177856.53, -169075.89, -173696.56, -187500.02, -187500.02, -171645.67, -187500.02, 0.00, 0.00, 0.00
101, -149693.41, -176977.17, -169228.98, -173595.58, -187500.02, -187500.02, -171945.84, -187500.02, 0.00, 0.00, 0.00
102, -147705.89, -173553.38, -169804.14, -173223.69, -187500.02, -187500.02, -173107.70, -187500.02, 0.00, 0.00, 0.00
103, -148116.27, -174277.81, -169678.55, -173305.36, -187500.02, -187500.02, -172855.78, -187500.02, 0.00, 0.00, 0.00
104, -150050.92, -177607.48, -169122.28, -173669.52, -187500.02, -187500.02, -171728.38, -187500.02, 0.00, 0.00, 0.00
105, -149980.98, -177471.64, -169149.53, -173649.63, -187500.02, -187500.02, -171777.48, -187500.02, 0.00, 0.00, 0.00
106, -148003.59, -174066.70, -169718.16, -173274.50, -187500.02, -187500.02, -172927.48, -187500.02, 0.00, 0.00, 0.00
107, -147821.16, -173770.08, -169765.83, -173246.95, -187500.02, -187500.02, -173024.00, -187500.02, 0.00, 0.00, 0.00
108, -149829.14, -177228.03, -169192.38, -173626.25, -187500.02, -187500.02, -171854.20, -187500.02, 0.00, 0.00, 0.00
109, -150192.14, -177836.66, -169093.64, -173688.20, -187500.02, -187500.02, -171650.78, -187500.02, 0.03, 0.90, 0.43
110, -148371.20, -174692.83, -169623.34, -173342.53, -187500.02, -187500.02, -172718.83, -187500.02, 0.00, 0.00, 0.00
111, -147608.48, -173393.11, -169836.22, -173205.70, -187500.02, -187500.02, -173155.52, -187500.02, 0.00, 0.00, 0.00
112, -149528.34, -176710.30, -169284.44, -173569.16, -187500.02, -187500.02, -172029.84, -187500.02, 0.00, 0.00, 0.00
113, -150324.95, -178064.97, -169065.28, -173714.22, -187500.02, -187500.02, -171576.45, -187500.02, 0.00, 0.00, 0.00
114, -148759.73, -175356.22, -169525.28, -173415.52, -187500.02, -187500.02, -172498.11, -187500.02, 0.00, 0.00, 0.00
115, -147505.80, -173203.50, -169875.70, -173181.88, -187500.02, -187500.02, -173221.34, -187500.02, 0.00, 0.00, 0.00
116, -149191.34, -176121.14, -169385.66, -173503.67, -187500.02, -187500.02, -172231.11, -187500.02, 0.00, 0.00, 0.00
117, -150382.16, -178168.14, -169044.30, -173725.17, -187500.02, -187500.02, -171541.08, -187500.02, 0.00, 0.00, 0.00
118, -149164.92, -176067.59, -169402.50, -173490.86, -187500.02, -187500.02, -172257.27, -187500.02, 0.03, 0.90, 0.43
119, -147505.81, -173220.36, -169868.45, -173177.27, -187500.02, -187500.02, -173212.53, -187500.02, 0.00, 0.00, 0.00
120, -148837.22, -175524.94, -169481.06, -173429.06, -187500.02, -187500.02, -172427.41, -187500.02, 0.00, 0.00, 0.00
121, -150358.22, -178133.42, -169047.16, -173711.92, -187500.02, -187500.02, -171547.78, -187500.02, 0.00, 0.00, 0.00
122, -149539.14, -176715.02, -169291.53, -173552.45, -187500.02, -187500.02, -172034.89, -187500.02, 0.00, 0.00, 0.00
123, -147621.48, -173418.38, -169835.64, -173191.59, -187500.02, -187500.02, -173147.17, -187500.02, 0.00, 0.00, 0.00
124, -148447.30, -174854.14, -169592.09, -173352.50, -187500.02, -187500.02, -172656.53, -187500.02, 0.00, 0.00, 0.00
125, -150247.89, -177946.88, -169076.56, -173689.95, -187500.02, -187500.02, -171611.08, -187500.02, 0.00, 0.00, 0.00
126, -149842.52, -177243.00, -169198.94, -173608.14, -187500.02, -187500.02, -171853.28, -187500.02, 0.00, 0.00, 0.00
127, -147834.80, -173793.28, -169772.53, -173229.13, -187500.02, -187500.02, -173020.17, -187500.02, 0.00, 0.00, 0.00
128, -148082.48, -174231.91, -169692.50, -173277.78, -187500.02, -187500.02, -172864.16, -187500.02, 0.03, 0.90, 0.43
129, -150054.67, -177614.36, -169131.11, -173647.91, -187500.02, -187500.02, -171719.08, -187500.02, 0.00, 0.00, 0.00
130, -150100.14, -177671.44, -169128.52, -173651.13, -187500.02, -187500.02, -171704.73, -187500.02, 0.00, 0.00, 0.00
131, -148147.98, -174315.19, -169687.55, -173283.03, -187500.02, -187500.02, -172840.13, -187500.02, 0.00, 0.00, 0.00
132, -147805.36, -173751.92, -169772.16, -173225.39, -187500.02, -187500.02, -173024.80, -187500.02, 0.00, 0.00, 0.00
133, -149804.16, -177192.55, -169200.33, -173603.89, -187500.02, -187500.02, -171862.27, -187500.02, 0.00, 0.00, 0.00
134, -150292.31, -178009.53, -169070.89, -173690.23, -187500.02, -187500.02, -171593.22, -187500.02, 0.00, 0.00, 0.00
135, -148524.13, -174959.88, -169585.25, -173353.47, -187500.02, -187500.02, -172629.16, -187500.02, 0.00, 0.00, 0.00
136, -147617.55, -173421.38, -169830.36, -173186.30, -187500.02, -187500.02, -173140.00, -187500.02, 0.00, 0.00, 0.00
137, -149500.48, -176672.03, -169285.83, -173543.41, -187500.02, -187500.02, -172035.67, -187500.02, 0.00, 0.00, 0.00
138, -150399.30, -178198.77, -169032.94, -173707.73, -187500.02, -187500.02, -171523.61, -187500.02, 0.03, 0.91, 0.42
139, -148918.09, -175643.44, -169462.16, -173423.80, -187500.02, -187500.02, -172393.50, -187500.02, 0.00, 0.00, 0.00
140, -147525.11, -173262.38, -169849.52, -173164.84, -187500.02, -187500.02, -173195.89, -187500.02, 0.00, 0.00, 0.00
141, -149128.36, -176038.44, -169386.63, -173471.95, -187500.02, -187500.02, -172254.25, -187500.02, 0.00, 0.00, 0.00
142, -150409.52, -178234.23, -169022.97, -173708.94, -187500.02, -187500.02, -171513.59, -187500.02, 0.00, 0.00, 0.00
143, -149276.97, -176272.73, -169354.41, -173487.17, -187500.02, -187500.02, -172180.47, -187500.02, 0.00, 0.00, 0.00
144, -147548.20, -173300.98, -169841.77, -173164.50, -187500.02, -187500.02, -173184.48, -187500.02, 0.00, 0.00, 0.00
145, -148746.78, -175378.75, -169488.84, -173394.23, -187500.02, -187500.02, -172477.66, -187500.02, 0.00, 0.00, 0.00
146, -150351.91, -178140.14, -169022.13, -173690.58, -187500.02, -187500.02, -171540.33, -187500.02, 0.00, 0.00, 0.00
147, -149642.91, -176916.38, -169233.59, -173552.08, -187500.02, -187500.02, -171962.61, -187500.02, 0.00, 0.00, 0.00
148, -147678.73, -173545.89, -169790.64, -173181.17, -187500.02, -187500.02, -173102.05, -187500.02, 0.03, 0.91, 0.41
149, -148371.56, -174754.66, -169583.08, -173314.97, -187500.02, -187500.02, -172687.02, -187500.02, 0.00, 0.00, 0.00
150, -150222.25, -177925.11, -169055.22, -173661.94, -187500.02, -187500.02, -171616.42, -187500.02, 0.00, 0.00, 0.00
151, -149939.34, -177423.81, -169142.75, -173603.31, -187500.02, -187500.02, -171792.91, -187500.02, 0.00, 0.00, 0.00
152, -147923.11, -173962.48, -169715.67, -173223.48, -187500.02, -187500.02, -172967.88, -187500.02, 0.00, 0.00, 0.00
153, -148008.89, -174131.73, -169677.09, -173243.42, -187500.02, -187500.02, -172905.72, -187500.02, 0.00, 0.00, 0.00
154, -149985.88, -177537.89, -169105.78, -173612.97, -187500.02, -187500.02, -171749.06, -187500.02, 0.00, 0.00, 0.00
155, -150119.50, -177759.30, -169073.16, -173631.08, -187500.02, -187500.02, -171678.63, -187500.02, 0.00, 0.00, 0.00
156, -148204.33, -174465.23, -169622.44, -173267.94, -187500.02, -187500.02, -172796.72, -187500.02, 0.00, 0.00, 0.00
157, -147689.58, -173592.34, -169751.25, -173172.13, -187500.02, -187500.02, -173082.53, -187500.02, 0.00, 0.00, 0.00
158, -149646.88, -176957.55, -169183.91, -173538.31, -187500.02, -187500.02, -171939.89, -187500.02, 0.03, 0.90, 0.41
159, -150249.25, -177986.13, -169012.11, -173644.13, -187500.02, -187500.02, -171594.50, -187500.02, 0.00, 0.00, 0.00
160, -148528.36, -175036.22, -169504.53, -173315.02, -187500.02, -187500.02, -172595.00, -187500.02, 0.00, 0.00, 0.00
161, -147513.11, -173312.47, -169780.88, -173128.05, -187500.02, -187500.02, -173173.11, -187500.02, 0.00, 0.00, 0.00
162, -149322.97, -176430.16, -169255.63, -173468.95, -187500.02, -187500.02, -172113.61, -187500.02, 0.00, 0.00, 0.00
163, -150336.23, -178148.31, -168970.44, -173653.09, -187500.02, -187500.02, -171537.97, -187500.02, 0.00, 0.00, 0.00
164, -148952.20, -175763.39, -169372.28, -173386.28, -187500.02, -187500.02, -172351.38, -187500.02, 0.00, 0.00, 0.00
165, -147449.94, -173201.53, -169786.77, -173104.67, -187500.02, -187500.02, -173213.58, -187500.02, 0.00, 0.00, 0.00
166, -148957.23, -175811.19, -169345.95, -173392.13, -187500.02, -187500.02, -172326.11, -187500.02, 0.00, 0.00, 0.00
167, -150320.06, -178141.08, -168957.66, -173645.73, -187500.02, -187500.02, -171542.06, -187500.02, 0.00, 0.00, 0.00
168, -149301.41, -176380.83, -169255.36, -173445.42, -187500.02, -187500.02, -172142.64, -187500.02, 0.03, 0.90, 0.43
169, -147489.23, -173275.13, -169763.84, -173104.17, -187500.02, -187500.02, -173191.39, -187500.02, 0.00, 0.00, 0.00
170, -148534.13, -175086.78, -169450.42, -173300.94, -187500.02, -187500.02, -172569.14, -187500.02, 0.00, 0.00, 0.00
171, -150213.28, -177967.44, -168961.70, -173609.95, -187500.02, -187500.02, -171589.78, -187500.02, 0.00, 0.00, 0.00
172, -149593.06, -176899.02, -169141.48, -173485.61, -187500.02, -187500.02, -171955.77, -187500.02, 0.00, 0.00, 0.00
173, -147622.38, -173521.92, -169702.86, -173115.95, -187500.02, -187500.02, -173103.09, -187500.02, 0.00, 0.00, 0.00
174, -148138.91, -174429.44, -169544.14, -173218.17, -187500.02, -187500.02, -172790.84, -187500.02, 0.00, 0.00, 0.00
175, -150034.58, -177680.73, -168995.23, -173569.94, -187500.02, -187500.02, -171686.06, -187500.02, 0.00, 0.00, 0.00
176, -149869.36, -177378.41, -169048.25, -173532.44, -187500.02, -187500.02, -171795.55, -187500.02, 0.00, 0.00, 0.00
177, -147876.70, -173958.39, -169614.75, -173154.64, -187500.02, -187500.02, -172955.22, -187500.02, 0.00, 0.00, 0.00
178, -147810.19, -173866.56, -169624.30, -173147.48, -187500.02, -187500.02, -172984.03, -187500.02, 0.03, 0.90, 0.43
179, -149796.16, -177285.67, -169050.28, -173519.69, -187500.02, -187500.02, -171823.13, -187500.02, 0.00, 0.00, 0.00
180, -150064.84, -177735.91, -168968.52, -173558.81, -187500.02, -187500.02, -171667.45, -187500.02, 0.00, 0.00, 0.00
181, -148197.05, -174525.97, -169500.06, -173202.97, -187500.02, -187500.02, -172756.14, -187500.02, 0.00, 0.00, 0.00
182, -147545.20, -173427.73, -169668.94, -173082.02, -187500.02, -187500.02, -173120.16, -187500.02, 0.00, 0.00, 0.00
183, -149491.91, -176777.70, -169109.09, -173448.13, -187500.02, -187500.02, -171984.75, -187500.02, 0.00, 0.00, 0.00
184, -150178.06, -177945.72, -168911.64, -173568.80, -187500.02, -187500.02, -171589.69, -187500.02, 0.00, 0.00, 0.00
185, -148554.63, -175156.02, -169377.17, -173257.27, -187500.02, -187500.02, -172538.00, -187500.02, 0.00, 0.00, 0.00
186, -147374.67, -173144.27, -169700.97, -173039.48, -187500.02, -187500.02, -173215.38, -187500.02, 0.00, 0.00, 0.00
187, -149116.58, -176149.88, -169193.95, -173368.42, -187500.02, -187500.02, -172192.16, -187500.02, 0.00, 0.00, 0.00
188, -150213.08, -178019.88, -168881.19, -173568.59, -187500.02, -187500.02, -171563.00, -187500.02, 0.03, 0.90, 0.42
189, -148910.02, -175775.88, -169256.92, -173316.19, -187500.02, -187500.02, -172328.23, -187500.02, 0.00, 0.00, 0.00
190, -147323.14, -173060.63, -169699.22, -173018.91, -187500.02, -187500.02, -173244.92, -187500.02, 0.00, 0.00, 0.00
191, -148723.72, -175485.91, -169290.19, -173285.56, -187500.02, -187500.02, -172418.13, -187500.02, 0.00, 0.00, 0.00
192, -150170.72, -177967.88, -168870.59, -173550.66, -187500.02, -187500.02, -171574.28, -187500.02, 0.00, 0.00, 0.00
193, -149265.86, -176403.56, -169130.22, -173369.28, -187500.02, -187500.02, -172105.39, -187500.02, 0.00, 0.00, 0.00
194, -147390.11, -173186.25, -169656.91, -173017.56, -187500.02, -187500.02, -173195.08, -187500.02, 0.00, 0.00, 0.00
195, -148328.55, -174816.72, -169380.58, -173199.42, -187500.02, -187500.02, -172641.69, -187500.02, 0.00, 0.00, 0.00
196, -150063.44, -177791.47, -168887.19, -173525.39, -187500.02, -187500.02, -171639.83, -187500.02, 0.00, 0.00, 0.00
197, -149569.64, -176937.23, -169031.31, -173423.33, -187500.02, -187500.02, -171931.00, -187500.02, 0.00, 0.00, 0.00
198, -147566.17, -173498.30, -169598.22, -173043.22, -187500.02, -187500.02, -173095.19, -187500.02, 0.03, 0.90, 0.43
199, -147932.48, -174144.98, -169477.11, -173113.88, -187500.02, -187500.02, -172866.86, -187500.02, 0.00, 0.00, 0.00
200, -149858.89, -177450.09, -168920.20, -173472.80, -187500.02, -187500.02, -171744.98, -187500.02, 0.00, 0.00, 0.00
201, -149792.20, -177326.16, -168943.33, -173454.42, -187500.02, -187500.02, -171793.36, -187500.02, 0.00, 0.00, 0.00
202, -147814.25, -173937.38, -169505.16, -173079.30, -187500.02, -187500.02, -172943.16, -187500.02, 0.00, 0.00, 0.00
203, -147581.28, -173557.00, -169557.27, -173037.52, -187500.02, -187500.02, -173064.56, -187500.02, 0.00, 0.00, 0.00
204, -149571.88, -176975.98, -168985.80, -173412.34, -187500.02, -187500.02, -171905.67, -187500.02, 0.00, 0.00, 0.00
205, -149956.70, -177620.09, -168877.81, -173476.27, -187500.02, -187500.02, -171690.52, -187500.02, 0.00, 0.00, 0.00
206, -148129.86, -174481.88, -169394.08, -173124.00, -187500.02, -187500.02, -172750.34, -187500.02, 0.00, 0.00, 0.00
207, -147344.06, -173152.56, -169603.11, -172979.55, -187500.02, -187500.02, -173195.08, -187500.02, 0.03, 0.90, 0.43
208, -149245.44, -176429.88, -169054.80, -173338.94, -187500.02, -187500.02, -172084.31, -187500.02, 0.00, 0.00, 0.00
209, -150057.63, -177812.08, -168826.66, -173487.55, -187500.02, -187500.02, -171622.33, -187500.02, 0.00, 0.00, 0.00
210, -148510.06, -175148.58, -169271.08, -173188.44, -187500.02, -187500.02, -172526.34, -187500.02, 0.00, 0.00, 0.00
211, -147212.92, -172934.66, -169626.42, -172945.48, -187500.02, -187500.02, -173269.06, -187500.02, 0.00, 0.00, 0.00
212, -148886.23, -175822.42, -169139.59, -173262.58, -187500.02, -187500.02, -172286.53, -187500.02, 0.00, 0.00, 0.00
213, -150075.69, -177851.28, -168796.69, -173478.59, -187500.02, -187500.02, -171599.52, -187500.02, 0.00, 0.00, 0.00
214, -148869.19, -175772.30, -169147.00, -173245.22, -187500.02, -187500.02, -172310.20, -187500.02, 0.00, 0.00, 0.00
215, -147185.72, -172895.92, -169615.56, -172928.84, -187500.02, -187500.02, -173280.22, -187500.02, 0.00, 0.00, 0.00
216, -148458.81, -175105.39, -169237.34, -173170.27, -187500.02, -187500.02, -172521.13, -187500.02, 0.00, 0.00, 0.00
217, -149998.89, -177745.06, -168787.69, -173451.63, -187500.02, -187500.02, -171619.89, -187500.02, 0.03, 0.90, 0.42
218, -149183.16, -176327.00, -169028.00, -173290.16, -187500.02, -187500.02, -172107.89, -187500.02, 0.00, 0.00, 0.00
219, -147274.80, -173052.94, -169566.39, -172931.39, -187500.02, -187500.02, -173217.44, -187500.02, 0.00, 0.00, 0.00
220, -148059.83, -174423.33, -169331.13, -173083.14, -187500.02, -187500.02, -172747.98, -187500.02, 0.00, 0.00, 0.00
221, -149861.33, -177520.61, -168809.72, -173417.59, -187500.02, -187500.02, -171694.70, -187500.02, 0.00, 0.00, 0.00
222, -149478.72, -176855.17, -168920.00, -173336.19, -187500.02, -187500.02, -171920.72, -187500.02, 0.00, 0.00, 0.00
223, -147473.98, -173408.66, -169488.22, -172955.20, -187500.02, -187500.02, -173088.14, -187500.02, 0.00, 0.00, 0.00
224, -147697.55, -173806.88, -169414.27, -173002.88, -187500.02, -187500.02, -172950.28, -187500.02, 0.00, 0.00, 0.00
225, -149658.80, -177175.09, -168851.23, -173371.50, -187500.02, -187500.02, -171809.94, -187500.02, 0.00, 0.00, 0.00
226, -149711.39, -177256.41, -168839.47, -173374.73, -187500.02, -187500.02, -171786.69, -187500.02, 0.00, 0.00, 0.00
227, -147760.81, -173910.73, -169395.69, -173004.58, -187500.02, -187500.02, -172922.91, -187500.02, 0.03, 0.90, 0.42
228, -147386.80, -173285.63, -169488.41, -172936.11, -187500.02, -187500.02, -173127.22, -187500.02, 0.00, 0.00, 0.00
229, -149373.11, -176698.67, -168915.17, -173308.88, -187500.02, -187500.02, -171966.11, -187500.02, 0.00, 0.00, 0.00
230, -149864.69, -177525.94, -168774.31, -173391.86, -187500.02, -187500.02, -171686.06, -187500.02, 0.00, 0.00, 0.00
231, -148102.63, -174495.72, -169279.92, -173056.13, -187500.02, -187500.02, -172717.72, -187500.02, 0.00, 0.00, 0.00
232, -147165.00, -172906.50, -169531.06, -172881.78, -187500.02, -187500.02, -173248.91, -187500.02, 0.00, 0.00, 0.00
233, -149016.11, -176100.45, -168991.83, -173227.73, -187500.02, -187500.02, -172158.19, -187500.02, 0.00, 0.00, 0.00
234, -149932.36, -177661.84, -168732.28, -173394.55, -187500.02, -187500.02, -171632.38, -187500.02, 0.00, 0.00, 0.00
235, -148456.86, -175119.72, -169158.27, -173110.41, -187500.02, -187500.02, -172498.05, -187500.02, 0.00, 0.00, 0.00
236, -147058.20, -172728.08, -169542.64, -172847.73, -187500.02, -187500.02, -173301.14, -187500.02, 0.00, 0.00, 0.00
237, -148635.55, -175452.84, -169078.14, -173143.58, -187500.02, -187500.02, -172367.28, -187500.02, 0.03, 0.90, 0.42
238, -149932.19, -177667.08, -168706.06, -173379.72, -187500.02, -187500.02, -171617.16, -187500.02, 0.00, 0.00, 0.00
239, -148826.05, -175760.39, -169031.02, -173166.58, -187500.02, -187500.02, -172271.64, -187500.02, 0.00, 0.00, 0.00
240, -147068.69, -172755.44, -169523.48, -172837.09, -187500.02, -187500.02, -173287.75, -187500.02, 0.00, 0.00, 0.00
241, -148243.05, -174788.83, -169179.81, -173063.03, -187500.02, -187500.02, -172594.22, -187500.02, 0.00, 0.00, 0.00
242, -149863.28, -177555.97, -168718.11, -173365.91, -187500.02, -187500.02, -171659.63, -187500.02, 0.00, 0.00, 0.00
243, -149160.70, -176334.31, -168922.61, -173223.36, -187500.02, -187500.02, -172076.98, -187500.02, 0.00, 0.00, 0.00
244, -147203.59, -172981.28, -169474.16, -172854.66, -187500.02, -187500.02, -173212.92, -187500.02, 0.00, 0.00, 0.00
245, -147846.55, -174107.72, -169279.61, -172979.47, -187500.02, -187500.02, -172824.89, -187500.02, 0.00, 0.00, 0.00
246, -149702.64, -177294.05, -168743.84, -173323.41, -187500.02, -187500.02, -171739.42, -187500.02, 0.00, 0.00, 0.00
247, -149439.95, -176830.09, -168823.09, -173266.30, -187500.02, -187500.02, -171900.06, -187500.02, 0.03, 0.90, 0.42
248, -147434.63, -173383.45, -169391.91, -172885.59, -187500.02, -187500.02, -173069.03, -187500.02, 0.00, 0.00, 0.00
249, -147509.55, -173527.09, -169358.78, -172904.47, -187500.02, -187500.02, -173015.38, -187500.02, 0.00, 0.00, 0.00
250, -149489.67, -176929.72, -168786.98, -173273.63, -187500.02, -187500.02, -171857.34, -187500.02, 0.00, 0.00, 0.00
