%OpenBCI Raw EEG Data
%
%Sample Rate = 250.0 Hz
%First Column = SampleIndex
%Other Columns = EEG data in microvolts followed by Accel Data (in G) interleaved with Aux Data
0, 8622.34, 13440.33, 3657.35, -812.42, -19423.42, -4959.40, -3168.16, -31604.38, -0.01, 0.48, 0.10
1, 8588.50, 13405.61, 3630.84, -848.16, -19448.97, -4987.88, -3194.38, -31618.93, 0.00, 0.00, 0.00
2, 8576.19, 13392.54, 3623.58, -853.26, -19453.57, -4986.72, -3199.47, -31625.13, 0.00, 0.00, 0.00
3, 8614.29, 13433.08, 3654.44, -813.40, -19427.33, -4950.73, -3167.44, -31608.12, 0.00, 0.00, 0.00
4, 8642.26, 13462.70, 3682.05, -795.50, -19384.39, -4930.24, -3145.14, -31583.33, 0.00, 0.00, 0.00
5, 8614.34, 13432.35, 3656.88, -837.43, -19420.00, -4966.60, -3176.54, -31600.54, 0.00, 0.00, 0.00
6, 8577.33, 13394.53, 3625.41, -872.55, -19461.30, -4996.53, -3206.51, -31633.39, 0.00, 0.00, 0.00
7, 8626.52, 13447.68, 3672.68, -815.53, -19419.24, -4947.56, -3162.26, -31602.68, -0.02, 0.97, 0.22
8, 8672.99, 13495.31, 3713.68, -769.41, -19383.07, -4911.71, -3125.60, -31566.45, 0.00, 0.00, 0.00
9, 8619.26, 13439.92, 3662.98, -831.31, -19436.99, -4973.82, -3181.90, -31608.58, 0.00, 0.00, 0.00
10, 8575.89, 13394.46, 3628.49, -869.19, -19470.13, -5013.99, -3219.28, -31643.41, 0.00, 0.00, 0.00
11, 8618.85, 13441.71, 3673.49, -807.46, -19423.69, -4956.41, -3172.47, -31605.50, 0.00, 0.00, 0.00
12, 8675.36, 13499.94, 3727.31, -747.91, -19371.18, -4897.11, -3118.96, -31552.41, 0.00, 0.00, 0.00
13, 8642.15, 13460.60, 3691.08, -798.38, -19406.43, -4941.30, -3157.12, -31577.22, 0.00, 0.00, 0.00
14, 8589.57, 13402.98, 3641.08, -855.38, -19454.22, -4994.63, -3205.46, -31621.84, 0.00, 0.00, 0.00
15, 8612.71, 13429.73, 3665.13, -815.86, -19435.78, -4959.54, -3175.87, -31606.86, 0.00, 0.00, 0.00
16, 8670.51, 13491.24, 3719.91, -750.88, -19363.47, -4899.30, -3118.81, -31557.64, -0.01, 0.97, 0.21
17, 8653.75, 13473.00, 3699.86, -780.10, -19382.38, -4924.92, -3140.13, -31566.16, 0.00, 0.00, 0.00
18, 8578.00, 13395.71, 3627.87, -863.20, -19462.04, -5000.69, -3211.54, -31628.03, 0.00, 0.00, 0.00
19, 8600.26, 13422.56, 3649.66, -832.16, -19438.69, -4969.71, -3184.50, -31611.42, 0.00, 0.00, 0.00
20, 8664.56, 13488.27, 3704.58, -764.41, -19384.39, -4909.72, -3127.90, -31568.60, 0.00, 0.00, 0.00
21, 8657.70, 13480.05, 3690.14, -787.00, -19398.65, -4931.11, -3142.16, -31573.49, 0.00, 0.00, 0.00
22, 8587.72, 13408.14, 3627.96, -865.64, -19458.27, -5000.00, -3205.53, -31624.16, 0.00, 0.00, 0.00
23, 8581.84, 13407.20, 3630.35, -860.48, -19454.04, -4990.59, -3201.69, -31624.68, 0.00, 0.00, 0.00
24, 8654.98, 13476.34, 3697.34, -781.71, -19384.62, -4915.82, -3128.51, -31565.71, 0.00, 0.00, 0.00
25, 8657.97, 13476.40, 3695.75, -788.68, -19387.99, -4923.49, -3131.84, -31563.50, 0.00, 0.00, 0.00
26, 8588.28, 13401.50, 3628.27, -871.49, -19451.58, -4998.50, -3197.93, -31615.20, -0.01, 0.97, 0.21
27, 8569.66, 13383.96, 3614.75, -883.54, -19462.47, -5007.55, -3211.05, -31632.72, 0.00, 0.00, 0.00
28, 8635.06, 13452.42, 3673.15, -810.52, -19402.83, -4938.19, -3149.83, -31585.41, 0.00, 0.00, 0.00
29, 8672.99, 13489.86, 3704.09, -780.34, -19371.85, -4909.60, -3117.84, -31552.04, 0.00, 0.00, 0.00
30, 8602.38, 13419.52, 3637.05, -864.32, -19441.08, -4986.96, -3188.97, -31609.61, 0.00, 0.00, 0.00
31, 8564.27, 13383.64, 3602.18, -898.56, -19479.57, -5018.21, -3219.97, -31642.49, 0.00, 0.00, 0.00
32, 8616.35, 13439.41, 3654.26, -829.65, -19414.70, -4952.07, -3163.58, -31599.73, 0.00, 0.00, 0.00
33, 8672.61, 13496.07, 3706.12, -779.11, -19361.71, -4904.71, -3118.00, -31553.64, 0.00, 0.00, 0.00
34, 8622.65, 13441.47, 3658.00, -843.62, -19425.81, -4963.34, -3170.80, -31591.78, 0.00, 0.00, 0.00
35, 8560.85, 13376.49, 3601.56, -904.06, -19491.41, -5026.88, -3235.62, -31650.29, 0.00, 0.00, 0.00
36, 8606.74, 13427.03, 3649.19, -842.71, -19447.25, -4973.73, -3190.85, -31616.72, -0.01, 0.96, 0.21
37, 8665.08, 13489.99, 3707.24, -778.13, -19391.79, -4912.51, -3132.26, -31565.04, 0.00, 0.00, 0.00
38, 8629.67, 13452.78, 3672.48, -830.86, -19425.61, -4959.90, -3169.92, -31590.23, 0.00, 0.00, 0.00
39, 8561.37, 13381.59, 3614.68, -904.42, -19482.63, -5028.32, -3230.86, -31644.28, 0.00, 0.00, 0.00
40, 8588.30, 13415.72, 3645.68, -859.02, -19449.12, -4990.18, -3197.64, -31623.40, 0.00, 0.00, 0.00
41, 8664.61, 13490.60, 3713.38, -778.42, -19378.43, -4914.25, -3123.61, -31559.92, 0.00, 0.00, 0.00
42, 8644.89, 13467.84, 3691.32, -812.13, -19399.88, -4944.63, -3146.19, -31570.14, 0.00, 0.00, 0.00
43, 8571.25, 13389.86, 3624.47, -890.65, -19463.74, -5015.51, -3212.64, -31628.07, 0.00, 0.00, 0.00
44, 8572.52, 13396.79, 3628.85, -875.34, -19458.02, -4999.08, -3206.02, -31630.96, 0.00, 0.00, 0.00
45, 8648.22, 13475.71, 3697.58, -793.35, -19389.06, -4922.86, -3137.60, -31569.87, 0.00, 0.00, 0.00
46, 8649.50, 13475.78, 3693.85, -803.39, -19398.65, -4934.26, -3141.40, -31567.75, -0.01, 0.97, 0.21
47, 8561.17, 13393.90, 3615.75, -894.52, -19475.88, -5014.93, -3217.73, -31631.34, 0.00, 0.00, 0.00
48, 8559.64, 13392.25, 3622.08, -886.83, -19453.01, -5002.57, -3212.66, -31630.09, 0.00, 0.00, 0.00
49, 8646.08, 13474.28, 3701.27, -793.53, -19387.05, -4913.79, -3133.31, -31560.77, 0.00, 0.00, 0.00
50, 8656.58, 13483.71, 3708.06, -794.78, -19385.44, -4913.56, -3125.11, -31549.40, 0.00, 0.00, 0.00
51, 8581.01, 13402.24, 3636.61, -884.61, -19453.93, -4997.27, -3196.01, -31611.51, 0.00, 0.00, 0.00
52, 8554.21, 13380.29, 3616.47, -899.26, -19465.46, -5009.52, -3209.67, -31628.03, 0.00, 0.00, 0.00
53, 8626.68, 13457.90, 3682.63, -812.11, -19399.46, -4928.16, -3140.98, -31567.30, 0.00, 0.00, 0.00
54, 8660.47, 13488.29, 3707.77, -786.31, -19374.25, -4906.10, -3116.26, -31540.75, 0.00, 0.00, 0.00
55, 8595.94, 13423.38, 3653.08, -858.42, -19432.14, -4973.96, -3174.60, -31588.67, 0.00, 0.00, 0.00
56, 8551.80, 13382.48, 3613.34, -897.69, -19471.81, -5010.39, -3214.54, -31627.87, -0.01, 0.97, 0.22
57, 8609.42, 13442.07, 3662.80, -829.90, -19424.47, -4944.16, -3163.76, -31588.29, 0.00, 0.00, 0.00
58, 8662.37, 13493.61, 3706.05, -784.64, -19384.01, -4895.64, -3116.53, -31544.50, 0.00, 0.00, 0.00
59, 8608.82, 13435.03, 3647.58, -859.09, -19441.59, -4962.20, -3174.71, -31590.17, 0.00, 0.00, 0.00
60, 8545.88, 13375.86, 3590.67, -926.86, -19480.01, -5020.29, -3234.41, -31644.19, 0.00, 0.00, 0.00
61, 8599.36, 13430.36, 3642.46, -867.81, -19439.94, -4961.33, -3182.69, -31605.46, 0.00, 0.00, 0.00
62, 8666.64, 13496.41, 3702.32, -803.59, -19390.83, -4904.22, -3123.50, -31553.42, 0.00, 0.00, 0.00
63, 8630.68, 13456.78, 3666.31, -855.56, -19431.47, -4956.07, -3163.53, -31582.34, 0.00, 0.00, 0.00
64, 8560.23, 13385.70, 3604.62, -925.47, -19493.76, -5023.24, -3226.34, -31635.36, 0.00, 0.00, 0.00
65, 8589.40, 13414.47, 3635.82, -880.93, -19462.96, -4983.66, -3195.67, -31615.45, 0.00, 0.00, 0.00
66, 8663.96, 13488.47, 3706.01, -800.26, -19394.18, -4911.37, -3125.22, -31554.94, -0.01, 0.96, 0.22
67, 8637.76, 13448.89, 3668.06, -850.82, -19434.93, -4965.13, -3169.05, -31589.07, 0.00, 0.00, 0.00
68, 8574.55, 13382.84, 3596.51, -933.21, -19504.09, -5043.29, -3242.50, -31651.12, 0.00, 0.00, 0.00
69, 8572.39, 13398.66, 3622.97, -887.95, -19467.16, -4999.88, -3205.31, -31622.17, 0.00, 0.00, 0.00
70, 8621.80, 13456.71, 3692.28, -802.43, -19394.76, -4917.54, -3128.37, -31556.62, 0.00, 0.00, 0.00
71, 8626.52, 13458.45, 3691.84, -814.23, -19397.98, -4927.13, -3130.59, -31552.12, 0.00, 0.00, 0.00
72, 8539.24, 13364.02, 3610.12, -910.70, -19477.11, -5012.98, -3212.93, -31621.15, 0.00, 0.00, 0.00
73, 8520.53, 13351.25, 3604.11, -907.57, -19479.41, -5009.14, -3214.16, -31627.54, 0.00, 0.00, 0.00
74, 8579.85, 13415.79, 3667.38, -828.18, -19416.71, -4930.44, -3146.61, -31573.87, 0.00, 0.00, 0.00
75, 8609.85, 13443.88, 3696.73, -801.51, -19384.97, -4903.57, -3116.39, -31539.05, 0.00, 0.00, 0.00
76, 8526.81, 13358.99, 3617.32, -893.89, -19461.35, -4985.98, -3195.90, -31605.19, -0.01, 0.97, 0.21
77, 8498.11, 13333.53, 3595.55, -913.83, -19487.93, -5002.95, -3218.63, -31628.19, 0.00, 0.00, 0.00
78, 8569.84, 13407.45, 3656.79, -833.18, -19429.61, -4929.34, -3154.21, -31578.30, 0.00, 0.00, 0.00
79, 8612.04, 13445.38, 3689.74, -800.13, -19396.42, -4899.64, -3119.61, -31546.00, 0.00, 0.00, 0.00
80, 8557.66, 13392.09, 3638.26, -870.40, -19428.36, -4959.20, -3176.18, -31582.57, 0.00, 0.00, 0.00
81, 8506.63, 13339.10, 3592.89, -925.12, -19480.86, -5006.99, -3220.48, -31629.04, 0.00, 0.00, 0.00
82, 8563.89, 13396.21, 3646.82, -863.13, -19436.99, -4948.25, -3167.18, -31589.43, 0.00, 0.00, 0.00
83, 8620.13, 13454.39, 3696.44, -810.34, -19386.76, -4900.87, -3117.73, -31542.98, 0.00, 0.00, 0.00
84, 8577.24, 13408.77, 3652.23, -869.62, -19431.31, -4961.24, -3163.60, -31578.07, 0.00, 0.00, 0.00
85, 8512.91, 13341.69, 3588.89, -939.35, -19492.78, -5027.49, -3230.16, -31640.90, 0.00, 0.00, 0.00
86, 8554.55, 13390.66, 3626.37, -885.04, -19456.50, -4977.06, -3192.21, -31613.17, -0.01, 0.96, 0.21
87, 8628.51, 13462.81, 3688.89, -818.68, -19393.96, -4914.01, -3131.05, -31557.89, 0.00, 0.00, 0.00
88, 8600.41, 13426.83, 3650.06, -873.37, -19435.98, -4963.43, -3172.65, -31584.29, 0.00, 0.00, 0.00
89, 8542.90, 13364.17, 3599.66, -941.01, -19494.05, -5025.32, -3228.04, -31632.19, 0.00, 0.00, 0.00
90, 8558.93, 13388.11, 3618.21, -912.31, -19476.35, -4997.78, -3207.14, -31622.76, 0.00, 0.00, 0.00
91, 8629.29, 13462.66, 3679.95, -842.53, -19417.65, -4931.00, -3139.73, -31566.41, 0.00, 0.00, 0.00
92, 8618.74, 13446.88, 3671.12, -867.58, -19410.95, -4952.68, -3153.25, -31571.03, 0.00, 0.00, 0.00
93, 8550.68, 13378.03, 3614.86, -941.41, -19473.67, -5021.39, -3215.70, -31624.01, 0.00, 0.00, 0.00
94, 8556.05, 13387.24, 3623.35, -924.24, -19474.63, -5003.48, -3204.03, -31619.83, 0.00, 0.00, 0.00
95, 8636.04, 13467.51, 3700.73, -834.48, -19399.84, -4920.16, -3126.38, -31555.68, 0.00, 0.00, 0.00
96, 8641.99, 13471.64, 3702.92, -837.45, -19392.98, -4924.45, -3125.78, -31550.98, -0.00, 0.96, 0.22
97, 8564.70, 13393.54, 3628.87, -923.17, -19458.53, -5004.96, -3198.87, -31611.45, 0.00, 0.00, 0.00
98, 8532.40, 13363.93, 3601.11, -940.14, -19485.42, -5022.15, -3225.80, -31643.10, 0.00, 0.00, 0.00
99, 8617.56, 13455.10, 3682.85, -839.67, -19402.86, -4928.49, -3142.52, -31572.64, 0.00, 0.00, 0.00
100, 8648.83, 13493.66, 3714.23, -808.42, -19368.26, -4897.65, -3109.57, -31535.45, 0.00, 0.00, 0.00
101, 8561.63, 13401.84, 3629.23, -909.45, -19448.34, -4991.61, -3192.03, -31607.67, 0.00, 0.00, 0.00
102, 8521.92, 13363.26, 3595.14, -943.38, -19480.55, -5021.23, -3219.17, -31638.80, 0.00, 0.00, 0.00
103, 8590.40, 13434.58, 3653.15, -866.60, -19426.48, -4940.09, -3150.05, -31579.04, 0.00, 0.00, 0.00
104, 8641.92, 13483.60, 3697.29, -825.87, -19367.58, -4893.18, -3105.75, -31531.49, 0.00, 0.00, 0.00
105, 8574.98, 13411.36, 3629.90, -917.00, -19445.23, -4972.23, -3178.82, -31589.41, -0.00, 0.96, 0.21
106, 8517.71, 13352.66, 3578.76, -977.87, -19505.79, -5024.94, -3231.79, -31638.71, 0.00, 0.00, 0.00
107, 8577.77, 13417.71, 3638.60, -903.84, -19445.62, -4955.49, -3167.94, -31587.46, 0.00, 0.00, 0.00
108, 8641.54, 13482.86, 3694.68, -841.92, -19388.75, -4897.24, -3110.07, -31530.33, 0.00, 0.00, 0.00
109, 8591.03, 13427.65, 3645.64, -905.02, -19441.39, -4960.32, -3166.28, -31573.18, 0.00, 0.00, 0.00
110, 8524.78, 13361.43, 3593.47, -966.58, -19496.17, -5024.52, -3226.90, -31630.13, 0.00, 0.00, 0.00
111, 8564.32, 13403.16, 3632.02, -915.21, -19459.90, -4977.04, -3188.43, -31600.98, 0.00, 0.00, 0.00
112, 8640.11, 13480.65, 3701.74, -839.06, -19393.78, -4903.26, -3121.69, -31536.88, 0.00, 0.00, 0.00
113, 8594.78, 13431.12, 3650.58, -900.02, -19446.04, -4965.02, -3168.81, -31577.00, 0.00, 0.00, 0.00
114, 8513.09, 13344.84, 3565.89, -995.46, -19521.10, -5057.82, -3252.83, -31654.94, 0.00, 0.00, 0.00
115, 8545.79, 13382.17, 3601.63, -956.39, -19477.47, -5015.78, -3219.90, -31630.78, -0.00, 0.96, 0.21
116, 8625.43, 13467.86, 3676.66, -875.83, -19416.54, -4935.58, -3145.31, -31565.00, 0.00, 0.00, 0.00
117, 8611.37, 13448.31, 3656.66, -906.56, -19436.61, -4966.09, -3166.06, -31576.44, 0.00, 0.00, 0.00
118, 8545.29, 13375.57, 3593.67, -984.28, -19495.57, -5036.21, -3227.19, -31625.97, 0.00, 0.00, 0.00
119, 8546.01, 13378.61, 3597.80, -971.67, -19488.57, -5020.16, -3221.04, -31628.68, 0.00, 0.00, 0.00
120, 8624.64, 13457.94, 3673.26, -884.93, -19411.08, -4935.62, -3145.14, -31565.13, 0.00, 0.00, 0.00
121, 8640.80, 13477.61, 3692.33, -874.65, -19394.09, -4929.21, -3131.93, -31545.44, 0.00, 0.00, 0.00
122, 8556.16, 13388.02, 3612.33, -964.90, -19472.26, -5020.25, -3216.24, -31618.87, 0.00, 0.00, 0.00
123, 8535.55, 13371.64, 3594.97, -967.74, -19480.71, -5023.67, -3226.61, -31634.11, 0.00, 0.00, 0.00
124, 8615.61, 13452.58, 3665.64, -870.18, -19402.97, -4929.52, -3144.87, -31563.70, 0.00, 0.00, 0.00
125, 8645.90, 13477.50, 3689.13, -848.45, -19376.08, -4906.25, -3120.91, -31537.28, 0.00, 0.96, 0.21
126, 8565.50, 13395.36, 3617.03, -937.45, -19439.89, -4981.00, -3193.53, -31596.34, 0.00, 0.00, 0.00
127, 8516.60, 13344.93, 3564.95, -989.06, -19480.53, -5019.44, -3236.06, -31640.23, 0.00, 0.00, 0.00
128, 8600.68, 13426.56, 3636.43, -907.41, -19407.15, -4932.16, -3159.55, -31576.42, 0.00, 0.00, 0.00
129, 8656.14, 13484.34, 3685.89, -864.57, -19362.91, -4885.42, -3108.39, -31526.38, 0.00, 0.00, 0.00
130, 8586.44, 13412.59, 3616.71, -955.38, -19421.81, -4968.26, -3180.79, -31587.51, 0.00, 0.00, 0.00
131, 8533.92, 13356.37, 3568.97, -1015.80, -19459.45, -5021.03, -3231.37, -31637.06, 0.00, 0.00, 0.00
132, 8589.35, 13412.86, 3619.60, -955.31, -19425.32, -4961.80, -3181.37, -31601.79, 0.00, 0.00, 0.00
133, 8652.90, 13476.07, 3674.54, -899.90, -19373.96, -4911.13, -3128.75, -31554.94, 0.00, 0.00, 0.00
134, 8621.80, 13442.65, 3641.50, -946.31, -19402.81, -4951.02, -3161.27, -31570.52, 0.00, 0.00, 0.00
135, 8555.38, 13379.96, 3578.27, -1016.00, -19464.28, -5016.38, -3225.13, -31628.12, 0.00, 0.96, 0.21
136, 8591.47, 13421.98, 3610.10, -971.88, -19434.69, -4975.65, -3192.99, -31609.14, 0.00, 0.00, 0.00
137, 8659.69, 13491.38, 3671.25, -902.83, -19372.66, -4911.01, -3127.99, -31553.20, 0.00, 0.00, 0.00
138, 8622.14, 13446.12, 3627.24, -957.59, -19410.97, -4963.27, -3168.02, -31585.56, 0.00, 0.00, 0.00
139, 8543.73, 13367.33, 3554.82, -1040.99, -19478.05, -5036.76, -3237.56, -31643.83, 0.00, 0.00, 0.00
140, 8562.77, 13388.81, 3577.93, -1006.81, -19453.48, -4999.03, -3211.36, -31626.91, 0.00, 0.00, 0.00
141, 8634.10, 13456.98, 3642.08, -933.19, -19391.95, -4926.64, -3144.31, -31567.23, 0.00, 0.00, 0.00
142, 8632.67, 13448.96, 3639.49, -951.16, -19397.71, -4942.08, -3149.99, -31564.66, 0.00, 0.00, 0.00
143, 8559.47, 13368.82, 3567.07, -1038.15, -19466.04, -5019.51, -3222.16, -31624.45, 0.00, 0.00, 0.00
144, 8564.05, 13369.79, 3566.69, -1031.22, -19474.20, -5011.71, -3219.77, -31629.71, 0.00, 0.00, 0.00
145, 8641.07, 13450.09, 3643.18, -946.22, -19384.46, -4934.80, -3138.83, -31566.45, -0.00, 0.96, 0.21
146, 8657.30, 13464.78, 3662.94, -945.23, -19361.44, -4933.28, -3126.25, -31549.53, 0.00, 0.00, 0.00
147, 8579.09, 13383.08, 3596.93, -1037.52, -19440.74, -5016.54, -3201.33, -31611.91, 0.00, 0.00, 0.00
148, 8545.14, 13349.53, 3571.63, -1064.61, -19469.73, -5038.98, -3227.06, -31641.29, 0.00, 0.00, 0.00
149, 8614.65, 13420.39, 3636.05, -986.85, -19403.35, -4962.13, -3160.22, -31587.28, 0.00, 0.00, 0.00
150, 8632.56, 13439.61, 3654.33, -970.20, -19379.90, -4944.34, -3138.43, -31564.75, 0.00, 0.00, 0.00
151, 8574.80, 13382.19, 3601.29, -1037.84, -19426.66, -5005.05, -3189.53, -31599.82, 0.00, 0.00, 0.00
152, 8550.06, 13360.00, 3579.50, -1055.81, -19441.01, -5015.64, -3206.04, -31613.93, 0.00, 0.00, 0.00
153, 8604.26, 13417.26, 3625.14, -985.33, -19390.94, -4948.63, -3153.29, -31574.86, 0.00, 0.00, 0.00
154, 8652.83, 13467.84, 3666.94, -935.60, -19352.34, -4905.58, -3111.77, -31534.11, 0.00, 0.00, 0.00
155, 8593.04, 13406.26, 3613.76, -1003.59, -19412.24, -4974.58, -3171.91, -31579.68, -0.00, 0.96, 0.22
156, 8549.50, 13360.87, 3573.51, -1044.52, -19452.30, -5012.92, -3211.39, -31617.26, 0.00, 0.00, 0.00
157, 8596.17, 13416.54, 3614.68, -986.09, -19412.18, -4956.77, -3168.05, -31587.71, 0.00, 0.00, 0.00
158, 8665.73, 13484.49, 3678.85, -920.40, -19355.00, -4890.18, -3108.84, -31524.99, 0.00, 0.00, 0.00
159, 8633.16, 13450.77, 3643.16, -978.00, -19391.86, -4936.65, -3145.31, -31548.90, 0.00, 0.00, 0.00
160, 8566.80, 13382.91, 3580.30, -1057.35, -19458.71, -5006.52, -3211.92, -31609.84, 0.00, 0.00, 0.00
161, 8613.02, 13430.29, 3624.89, -1004.96, -19417.90, -4951.74, -3167.15, -31574.77, 0.00, 0.00, 0.00
162, 8664.97, 13486.80, 3667.56, -953.53, -19376.03, -4897.40, -3114.83, -31532.54, 0.00, 0.00, 0.00
163, 8638.64, 13461.81, 3637.57, -998.05, -19382.70, -4932.85, -3142.16, -31549.42, 0.00, 0.00, 0.00
164, 8556.76, 13374.39, 3560.43, -1087.70, -19460.37, -5019.80, -3219.93, -31618.80, 0.00, 0.00, 0.00
165, 8572.32, 13390.64, 3577.75, -1058.58, -19450.60, -4994.43, -3200.17, -31606.97, 0.00, 0.96, 0.21
166, 8647.84, 13471.62, 3647.78, -974.92, -19380.73, -4916.69, -3128.15, -31546.60, 0.00, 0.00, 0.00
167, 8651.94, 13468.22, 3644.54, -988.15, -19386.05, -4930.17, -3133.65, -31544.32, 0.00, 0.00, 0.00
168, 8573.12, 13383.73, 3572.39, -1074.94, -19459.63, -5015.53, -3208.73, -31608.21, 0.00, 0.00, 0.00
169, 8557.23, 13372.87, 3564.79, -1071.30, -19467.56, -5016.31, -3216.44, -31622.55, 0.00, 0.00, 0.00
170, 8639.35, 13455.84, 3641.05, -981.82, -19394.94, -4933.61, -3142.50, -31560.55, 0.00, 0.00, 0.00
171, 8657.86, 13469.18, 3657.28, -968.41, -19378.31, -4922.93, -3125.94, -31539.12, 0.00, 0.00, 0.00
172, 8569.93, 13377.65, 3577.17, -1061.19, -19459.63, -5015.24, -3209.69, -31611.67, 0.00, 0.00, 0.00
173, 8545.34, 13355.66, 3560.10, -1075.14, -19481.09, -5028.54, -3222.45, -31628.48, 0.00, 0.00, 0.00
174, 8632.11, 13448.02, 3651.49, -974.65, -19372.35, -4927.91, -3130.72, -31546.29, 0.00, 0.00, 0.00
175, 8668.07, 13483.44, 3686.94, -947.54, -19344.21, -4898.07, -3097.24, -31512.00, 0.00, 0.97, 0.21
176, 8594.80, 13408.57, 3619.89, -1032.99, -19419.11, -4976.06, -3166.06, -31567.50, 0.00, 0.00, 0.00
177, 8553.97, 13366.88, 3584.50, -1068.86, -19451.29, -5007.17, -3199.54, -31601.39, 0.00, 0.00, 0.00
178, 8617.29, 13437.80, 3647.31, -986.72, -19387.43, -4929.52, -3133.40, -31546.92, 0.00, 0.00, 0.00
179, 8655.15, 13474.75, 3674.49, -955.25, -19360.12, -4896.19, -3103.16, -31514.88, 0.00, 0.00, 0.00
180, 8607.28, 13420.61, 3627.51, -1024.02, -19410.57, -4959.78, -3157.54, -31554.34, 0.00, 0.00, 0.00
181, 8535.42, 13351.39, 3560.61, -1095.95, -19478.14, -5026.30, -3225.09, -31621.39, 0.00, 0.00, 0.00
182, 8591.56, 13406.71, 3605.81, -1034.26, -19435.33, -4970.83, -3179.92, -31588.09, 0.00, 0.00, 0.00
183, 8669.71, 13484.83, 3674.02, -960.70, -19347.78, -4900.22, -3111.59, -31525.99, 0.00, 0.00, 0.00
184, 8635.80, 13452.64, 3642.42, -1006.54, -19385.80, -4943.80, -3145.20, -31548.97, -0.00, 0.97, 0.21
185, 8560.16, 13378.84, 3567.09, -1084.98, -19465.60, -5021.34, -3219.30, -31615.02, 0.00, 0.00, 0.00
186, 8583.65, 13407.98, 3585.87, -1047.02, -19443.47, -4988.24, -3193.26, -31598.82, 0.00, 0.00, 0.00
187, 8675.05, 13503.76, 3670.02, -950.37, -19360.57, -4896.89, -3108.32, -31518.91, 0.00, 0.00, 0.00
188, 8655.85, 13486.10, 3653.66, -977.82, -19376.21, -4921.50, -3127.28, -31529.06, 0.00, 0.00, 0.00
189, 8573.35, 13397.95, 3574.58, -1068.19, -19455.00, -5005.70, -3207.88, -31601.32, 0.00, 0.00, 0.00
190, 8570.64, 13393.79, 3571.94, -1059.36, -19458.69, -4995.01, -3207.94, -31609.37, 0.00, 0.00, 0.00
191, 8649.66, 13475.73, 3647.74, -972.70, -19381.78, -4915.04, -3131.97, -31545.08, 0.00, 0.00, 0.00
192, 8650.97, 13470.88, 3644.76, -986.61, -19384.17, -4925.14, -3138.01, -31543.61, 0.00, 0.00, 0.00
193, 8564.76, 13380.63, 3564.19, -1088.55, -19462.80, -5018.39, -3220.93, -31616.18, 0.00, 0.00, 0.00
194, 8573.35, 13380.92, 3563.87, -1089.76, -19464.41, -5017.43, -3222.61, -31626.85, 0.00, 0.96, 0.21
195, 8640.87, 13449.69, 3614.61, -1026.53, -19418.75, -4964.32, -3176.14, -31593.32, 0.00, 0.00, 0.00
196, 8648.72, 13466.01, 3639.98, -1001.05, -19390.85, -4936.07, -3147.57, -31554.89, 0.00, 0.00, 0.00
197, 8573.82, 13395.91, 3590.00, -1064.10, -19438.15, -4991.70, -3194.58, -31588.76, 0.00, 0.00, 0.00
198, 8551.22, 13374.70, 3566.49, -1084.42, -19460.39, -5011.64, -3215.01, -31613.41, 0.00, 0.00, 0.00
199, 8628.67, 13458.97, 3627.04, -1007.46, -19403.01, -4941.77, -3154.10, -31567.19, 0.00, 0.00, 0.00
200, 8685.73, 13518.00, 3669.62, -967.07, -19365.37, -4906.97, -3116.82, -31528.74, 0.00, 0.00, 0.00
201, 8634.43, 13462.23, 3628.31, -1030.44, -19408.94, -4964.75, -3163.82, -31561.87, 0.00, 0.00, 0.00
202, 8582.64, 13409.46, 3587.57, -1077.29, -19454.42, -5006.84, -3207.81, -31606.13, 0.00, 0.00, 0.00
203, 8629.23, 13458.75, 3631.29, -1015.31, -19405.09, -4948.61, -3160.00, -31572.60, 0.00, 0.00, 0.00
204, 8683.61, 13504.66, 3673.20, -970.58, -19346.71, -4907.15, -3117.33, -31532.41, -0.01, 0.96, 0.21
205, 8630.12, 13447.32, 3612.56, -1043.54, -19415.48, -4974.45, -3179.85, -31578.74, 0.00, 0.00, 0.00
206, 8566.46, 13387.53, 3552.76, -1102.59, -19474.43, -5028.40, -3235.39, -31626.55, 0.00, 0.00, 0.00
207, 8612.89, 13439.88, 3599.68, -1033.63, -19426.77, -4965.08, -3185.01, -31588.98, 0.00, 0.00, 0.00
208, 8683.61, 13511.16, 3664.77, -957.59, -19363.49, -4896.69, -3119.28, -31526.64, 0.00, 0.00, 0.00
209, 8649.14, 13474.03, 3626.48, -1007.01, -19402.28, -4946.69, -3160.98, -31553.60, 0.00, 0.00, 0.00
210, 8584.54, 13405.55, 3566.80, -1076.08, -19460.23, -5010.41, -3221.80, -31605.59, 0.00, 0.00, 0.00
211, 8614.59, 13437.11, 3596.19, -1035.36, -19429.66, -4970.16, -3190.87, -31585.96, 0.00, 0.00, 0.00
212, 8674.24, 13498.78, 3645.14, -976.57, -19381.44, -4916.22, -3141.76, -31546.40, 0.00, 0.00, 0.00
213, 8671.20, 13488.47, 3638.08, -997.54, -19385.53, -4932.20, -3150.19, -31546.13, 0.00, 0.00, 0.00
214, 8589.13, 13404.81, 3562.94, -1085.60, -19454.31, -5010.08, -3222.52, -31608.45, -0.00, 0.96, 0.21
215, 8601.80, 13419.38, 3577.49, -1063.47, -19438.60, -4989.58, -3204.77, -31600.20, 0.00, 0.00, 0.00
216, 8666.75, 13490.19, 3637.97, -990.83, -19376.93, -4919.40, -3140.53, -31548.64, 0.00, 0.00, 0.00
217, 8675.34, 13498.51, 3640.47, -995.21, -19367.99, -4919.64, -3135.88, -31537.80, 0.00, 0.00, 0.00
218, 8589.75, 13412.99, 3561.71, -1088.66, -19447.85, -5007.55, -3215.70, -31606.42, 0.00, 0.00, 0.00
219, 8576.36, 13401.59, 3552.32, -1088.44, -19462.69, -5008.04, -3223.43, -31616.05, 0.00, 0.00, 0.00
220, 8656.74, 13482.93, 3620.22, -1002.54, -19387.21, -4931.09, -3156.42, -31562.47, 0.00, 0.00, 0.00
221, 8690.60, 13516.88, 3649.08, -980.71, -19353.97, -4913.85, -3136.37, -31536.57, 0.00, 0.00, 0.00
222, 8625.85, 13446.74, 3588.42, -1057.98, -19427.98, -4988.64, -3198.00, -31588.74, 0.00, 0.00, 0.00
223, 8590.22, 13410.87, 3561.06, -1086.47, -19460.75, -5017.12, -3228.08, -31622.96, 0.00, 0.00, 0.00
224, 8658.86, 13481.92, 3629.14, -1005.18, -19394.14, -4946.33, -3161.61, -31571.75, -0.00, 0.96, 0.21
225, 8707.28, 13531.39, 3674.31, -959.49, -19351.94, -4903.10, -3119.21, -31527.74, 0.00, 0.00, 0.00
226, 8629.96, 13454.39, 3603.32, -1046.60, -19426.15, -4983.92, -3196.48, -31591.64, 0.00, 0.00, 0.00
227, 8586.56, 13411.25, 3569.01, -1085.53, -19460.84, -5018.84, -3233.47, -31627.34, 0.00, 0.00, 0.00
228, 8634.46, 13464.27, 3614.46, -1021.25, -19413.38, -4959.67, -3184.39, -31591.78, 0.00, 0.00, 0.00
229, 8690.25, 13518.18, 3665.40, -971.32, -19363.79, -4911.30, -3136.26, -31543.72, 0.00, 0.00, 0.00
230, 8638.97, 13462.79, 3616.71, -1039.67, -19409.85, -4974.72, -3186.49, -31581.16, 0.00, 0.00, 0.00
231, 8567.67, 13389.01, 3551.78, -1114.26, -19470.85, -5043.87, -3250.44, -31641.71, 0.00, 0.00, 0.00
232, 8610.36, 13434.63, 3591.93, -1059.25, -19426.73, -4989.49, -3201.64, -31606.73, 0.00, 0.00, 0.00
233, 8684.43, 13513.93, 3658.35, -981.76, -19357.10, -4912.69, -3126.72, -31536.59, 0.00, 0.00, 0.00
234, 8657.68, 13484.81, 3623.53, -1023.58, -19394.74, -4948.81, -3157.16, -31551.56, -0.00, 0.97, 0.21
235, 8584.52, 13401.97, 3549.77, -1104.89, -19456.19, -5023.98, -3228.35, -31613.99, 0.00, 0.00, 0.00
236, 8588.86, 13415.43, 3558.31, -1082.18, -19434.86, -5001.29, -3215.97, -31610.22, 0.00, 0.00, 0.00
237, 8662.93, 13497.75, 3627.53, -998.70, -19377.71, -4918.41, -3142.16, -31541.46, 0.00, 0.00, 0.00
238, 8656.29, 13485.63, 3619.17, -1018.28, -19390.56, -4932.23, -3148.62, -31537.53, 0.00, 0.00, 0.00
239, 8567.69, 13392.96, 3539.51, -1114.30, -19467.34, -5021.19, -3226.70, -31607.31, 0.00, 0.00, 0.00
240, 8566.60, 13393.81, 3543.76, -1102.30, -19462.45, -5006.50, -3222.50, -31610.75, 0.00, 0.00, 0.00
241, 8645.50, 13474.15, 3615.04, -1015.89, -19390.63, -4924.00, -3149.96, -31548.82, 0.00, 0.00, 0.00
242, 8667.80, 13494.51, 3631.13, -1003.12, -19373.04, -4913.29, -3132.82, -31523.78, 0.00, 0.00, 0.00
243, 8589.55, 13419.61, 3560.50, -1089.29, -19446.55, -4997.63, -3210.92, -31587.98, 0.00, 0.00, 0.00
244, 8574.02, 13400.36, 3544.96, -1102.92, -19465.17, -5014.57, -3231.35, -31615.02, -0.01, 0.96, 0.21
245, 8654.10, 13483.31, 3616.60, -1015.84, -19393.98, -4934.35, -3159.17, -31557.31, 0.00, 0.00, 0.00
246, 8680.93, 13511.94, 3638.15, -997.31, -19376.48, -4914.63, -3139.62, -31534.20, 0.00, 0.00, 0.00
247, 8602.87, 13430.56, 3567.92, -1090.72, -19452.10, -5002.32, -3218.99, -31597.45, 0.00, 0.00, 0.00
248, 8559.00, 13386.77, 3535.46, -1126.64, -19486.43, -5037.55, -3253.59, -31635.76, 0.00, 0.00, 0.00
249, 8636.87, 13471.26, 3609.14, -1036.92, -19409.63, -4954.24, -3176.27, -31573.76, 0.00, 0.00, 0.00
250, 8704.28, 13540.53, 3652.61, -993.85, -19367.56, -4913.96, -3134.21, -31531.45, 0.00, 0.00, 0.00
251, 8640.65, 13472.13, 3585.96, -1081.18, -19434.37, -4994.52, -3203.76, -31588.04, 0.00, 0.00, 0.00
252, 8577.33, 13405.48, 3546.71, -1130.01, -19471.81, -5037.68, -3243.06, -31625.59, 0.00, 0.00, 0.00
253, 8618.77, 13450.30, 3597.94, -1061.98, -19417.61, -4973.35, -3187.94, -31584.60, 0.00, 0.00, 0.00
254, 8660.52, 13489.30, 3643.96, -1005.65, -19369.11, -4919.98, -3136.02, -31535.92, -0.01, 0.96, 0.21
255, 8617.18, 13442.74, 3594.07, -1069.58, -19422.97, -4981.44, -3189.79, -31577.27, 0.00, 0.00, 0.00
0, 8564.03, 13384.81, 3548.36, -1130.60, -19472.62, -5037.95, -3244.27, -31624.81, 0.00, 0.00, 0.00
1, 8608.28, 13426.76, 3591.66, -1073.31, -19426.32, -4983.05, -3198.27, -31591.98, 0.00, 0.00, 0.00
2, 8672.45, 13490.33, 3646.08, -1011.42, -19370.85, -4923.80, -3139.50, -31542.87, 0.00, 0.00, 0.00
3, 8636.69, 13453.80, 3612.02, -1061.39, -19403.71, -4969.55, -3173.75, -31566.63, 0.00, 0.00, 0.00
4, 8564.05, 13380.58, 3544.20, -1141.88, -19469.29, -5040.16, -3242.03, -31623.63, 0.00, 0.00, 0.00
5, 8589.57, 13410.73, 3572.95, -1102.70, -19441.37, -5002.36, -3211.97, -31603.64, 0.00, 0.00, 0.00
6, 8668.95, 13494.71, 3645.26, -1016.49, -19374.40, -4924.09, -3137.25, -31540.41, 0.00, 0.00, 0.00
7, 8666.82, 13489.55, 3639.51, -1027.64, -19379.68, -4937.99, -3143.39, -31536.39, 0.00, 0.00, 0.00
8, 8578.62, 13400.50, 3561.06, -1119.15, -19445.88, -5024.05, -3228.35, -31605.99, -0.01, 0.96, 0.21
9, 8581.62, 13408.19, 3567.05, -1104.87, -19451.11, -5009.74, -3224.55, -31608.27, 0.00, 0.00, 0.00
10, 8654.35, 13483.64, 3629.77, -1022.41, -19394.63, -4933.92, -3160.13, -31553.78, 0.00, 0.00, 0.00
11, 8664.68, 13492.85, 3633.37, -1022.57, -19391.95, -4933.95, -3154.97, -31542.71, 0.00, 0.00, 0.00
12, 8584.32, 13408.86, 3556.18, -1116.04, -19469.06, -5022.46, -3232.71, -31608.88, 0.00, 0.00, 0.00
13, 8569.46, 13395.49, 3548.74, -1122.97, -19475.50, -5026.08, -3239.89, -31617.41, 0.00, 0.00, 0.00
14, 8641.27, 13471.24, 3620.49, -1037.84, -19403.06, -4945.55, -3166.64, -31560.75, 0.00, 0.00, 0.00
15, 8678.15, 13507.92, 3656.59, -1006.03, -19366.36, -4914.01, -3128.91, -31525.30, 0.00, 0.00, 0.00
16, 8621.07, 13446.41, 3606.41, -1075.30, -19417.23, -4976.15, -3183.11, -31565.22, 0.00, 0.00, 0.00
17, 8563.11, 13390.21, 3556.83, -1126.21, -19467.52, -5023.98, -3230.45, -31614.35, -0.01, 0.96, 0.21
18, 8628.96, 13460.02, 3620.07, -1050.67, -19405.52, -4952.68, -3166.95, -31564.26, 0.00, 0.00, 0.00
19, 8680.61, 13515.00, 3663.65, -1001.29, -19360.50, -4907.66, -3122.00, -31520.23, 0.00, 0.00, 0.00
20, 8611.97, 13441.33, 3595.48, -1082.47, -19425.92, -4982.81, -3188.97, -31573.38, 0.00, 0.00, 0.00
21, 8557.72, 13380.00, 3537.99, -1140.56, -19483.81, -5037.48, -3241.61, -31623.02, 0.00, 0.00, 0.00
22, 8609.40, 13431.45, 3584.97, -1082.54, -19425.72, -4984.08, -3199.81, -31593.21, 0.00, 0.00, 0.00
23, 8670.78, 13495.00, 3646.11, -1016.98, -19377.29, -4923.84, -3144.13, -31541.02, 0.00, 0.00, 0.00
24, 8627.66, 13449.40, 3607.73, -1069.11, -19425.59, -4975.52, -3188.07, -31570.47, 0.00, 0.00, 0.00
25, 8562.01, 13380.38, 3552.45, -1131.20, -19483.30, -5034.40, -3244.62, -31616.79, 0.00, 0.00, 0.00
26, 8602.47, 13427.94, 3597.04, -1073.84, -19435.31, -4976.79, -3196.66, -31580.38, 0.00, 0.00, 0.00
27, 8669.59, 13501.57, 3656.52, -1007.50, -19373.46, -4908.58, -3137.67, -31528.90, -0.00, 0.96, 0.21
28, 8643.06, 13472.54, 3628.43, -1048.23, -19398.81, -4944.12, -3166.10, -31546.07, 0.00, 0.00, 0.00
29, 8567.96, 13394.01, 3556.10, -1132.25, -19469.93, -5023.08, -3236.80, -31605.12, 0.00, 0.00, 0.00
30, 8582.38, 13409.75, 3569.98, -1109.34, -19457.06, -5003.28, -3219.99, -31600.47, 0.00, 0.00, 0.00
31, 8670.20, 13501.28, 3649.73, -1016.60, -19377.44, -4916.36, -3134.92, -31528.05, 0.00, 0.00, 0.00
32, 8670.04, 13501.19, 3648.77, -1028.40, -19378.09, -4927.46, -3138.97, -31524.50, 0.00, 0.00, 0.00
33, 8590.27, 13421.26, 3577.75, -1121.07, -19441.21, -5014.86, -3219.77, -31593.56, 0.00, 0.00, 0.00
34, 8587.23, 13417.51, 3577.71, -1116.98, -19458.82, -5013.56, -3223.70, -31604.16, 0.00, 0.00, 0.00
35, 8665.28, 13499.96, 3651.36, -1024.51, -19389.04, -4931.04, -3147.82, -31540.05, 0.00, 0.00, 0.00
36, 8675.67, 13511.79, 3657.64, -1019.98, -19379.14, -4926.46, -3139.46, -31527.43, 0.00, 0.00, 0.00
37, 8593.55, 13425.13, 3574.33, -1118.46, -19457.95, -5015.11, -3221.87, -31594.88, -0.01, 0.97, 0.22
38, 8578.17, 13405.41, 3557.26, -1135.22, -19470.76, -5026.93, -3232.96, -31612.92, 0.00, 0.00, 0.00
39, 8645.68, 13478.62, 3622.68, -1059.43, -19404.24, -4954.89, -3163.35, -31561.13, 0.00, 0.00, 0.00
40, 8685.37, 13518.65, 3664.26, -1029.10, -19368.12, -4920.20, -3126.65, -31522.78, 0.00, 0.00, 0.00
41, 8610.43, 13438.40, 3589.56, -1123.15, -19442.80, -5008.44, -3205.49, -31587.91, 0.00, 0.00, 0.00
42, 8575.02, 13406.93, 3562.78, -1152.21, -19467.29, -5031.74, -3230.59, -31610.78, 0.00, 0.00, 0.00
43, 8642.17, 13479.15, 3628.11, -1071.07, -19408.06, -4952.59, -3166.28, -31555.50, 0.00, 0.00, 0.00
44, 8707.26, 13543.01, 3684.10, -1013.41, -19357.30, -4894.43, -3108.99, -31500.33, 0.00, 0.00, 0.00
45, 8631.89, 13463.73, 3610.45, -1100.47, -19410.03, -4976.84, -3181.37, -31561.73, 0.00, 0.00, 0.00
46, 8564.56, 13395.91, 3550.64, -1164.70, -19467.50, -5036.81, -3239.91, -31615.83, 0.00, 0.00, 0.00
47, 8627.84, 13463.55, 3608.93, -1089.71, -19421.32, -4967.59, -3179.85, -31569.02, -0.01, 0.96, 0.22
48, 8693.29, 13536.01, 3663.99, -1020.83, -19365.08, -4905.09, -3118.72, -31513.21, 0.00, 0.00, 0.00
49, 8643.91, 13479.31, 3611.57, -1082.36, -19416.22, -4962.80, -3171.80, -31553.04, 0.00, 0.00, 0.00
50, 8570.28, 13404.97, 3544.74, -1157.60, -19478.09, -5034.08, -3235.75, -31612.96, 0.00, 0.00, 0.00
51, 8599.03, 13439.57, 3575.16, -1117.43, -19443.74, -4990.67, -3203.36, -31591.37, 0.00, 0.00, 0.00
52, 8679.79, 13518.27, 3649.37, -1040.25, -19373.84, -4911.91, -3130.74, -31526.13, 0.00, 0.00, 0.00
53, 8663.25, 13493.88, 3626.61, -1083.84, -19399.68, -4952.97, -3159.24, -31546.96, 0.00, 0.00, 0.00
54, 8589.80, 13411.58, 3555.22, -1171.21, -19474.05, -5033.95, -3231.93, -31612.05, 0.00, 0.00, 0.00
55, 8590.96, 13418.22, 3564.57, -1156.88, -19451.25, -5019.24, -3223.66, -31614.26, 0.00, 0.00, 0.00
56, 8685.69, 13514.94, 3654.87, -1060.79, -19361.57, -4926.30, -3137.18, -31537.35, 0.00, 0.00, 0.00
57, 8684.41, 13511.52, 3653.06, -1071.92, -19376.19, -4936.85, -3141.74, -31533.68, -0.01, 0.96, 0.22
58, 8588.01, 13415.09, 3564.28, -1175.50, -19463.16, -5036.67, -3229.85, -31611.15, 0.00, 0.00, 0.00
59, 8575.87, 13407.36, 3554.35, -1176.08, -19470.87, -5037.21, -3234.72, -31621.82, 0.00, 0.00, 0.00
60, 8655.13, 13495.11, 3623.87, -1083.59, -19400.64, -4951.56, -3160.40, -31558.90, 0.00, 0.00, 0.00
61, 8684.17, 13522.72, 3646.15, -1064.21, -19377.17, -4934.19, -3137.87, -31532.61, 0.00, 0.00, 0.00
62, 8610.67, 13442.47, 3576.82, -1148.28, -19446.44, -5012.65, -3210.76, -31590.97, 0.00, 0.00, 0.00
63, 8589.17, 13418.15, 3559.05, -1166.16, -19464.50, -5027.04, -3229.51, -31611.71, 0.00, 0.00, 0.00
64, 8661.30, 13493.41, 3627.08, -1083.19, -19401.94, -4948.77, -3161.10, -31556.64, 0.00, 0.00, 0.00
65, 8695.88, 13524.50, 3656.97, -1053.37, -19374.69, -4922.90, -3131.57, -31528.50, 0.00, 0.00, 0.00
66, 8623.10, 13453.27, 3595.52, -1135.51, -19423.13, -5001.18, -3200.26, -31580.87, 0.00, 0.00, 0.00
67, 8574.20, 13404.54, 3557.44, -1178.59, -19476.24, -5038.78, -3240.62, -31616.25, -0.01, 0.96, 0.22
68, 8620.80, 13456.49, 3603.62, -1118.19, -19433.12, -4978.65, -3191.25, -31579.46, 0.00, 0.00, 0.00
69, 8678.36, 13516.39, 3655.69, -1065.11, -19376.44, -4921.14, -3133.09, -31524.63, 0.00, 0.00, 0.00
70, 8624.38, 13457.27, 3602.48, -1138.26, -19428.18, -4983.66, -3185.73, -31566.34, 0.00, 0.00, 0.00
71, 8558.37, 13390.30, 3545.97, -1204.96, -19482.16, -5041.84, -3242.55, -31618.98, 0.00, 0.00, 0.00
72, 8611.70, 13445.65, 3593.91, -1142.89, -19430.62, -4980.44, -3188.77, -31575.95, 0.00, 0.00, 0.00
73, 8684.57, 13519.56, 3658.51, -1070.27, -19361.88, -4910.61, -3120.12, -31515.09, 0.00, 0.00, 0.00
74, 8636.69, 13468.36, 3608.89, -1133.30, -19411.26, -4970.58, -3174.35, -31556.53, 0.00, 0.00, 0.00
75, 8552.58, 13382.66, 3531.44, -1221.10, -19484.84, -5053.82, -3251.89, -31628.57, 0.00, 0.00, 0.00
76, 8587.23, 13414.76, 3561.82, -1179.55, -19453.59, -5013.09, -3222.54, -31608.41, 0.00, 0.00, 0.00
77, 8675.07, 13506.00, 3643.36, -1089.74, -19372.46, -4926.75, -3143.95, -31537.35, -0.01, 0.96, 0.21
78, 8662.06, 13487.76, 3623.11, -1118.64, -19391.39, -4954.47, -3162.86, -31547.38, 0.00, 0.00, 0.00
79, 8583.87, 13406.29, 3549.23, -1203.84, -19456.50, -5036.12, -3233.09, -31611.76, 0.00, 0.00, 0.00
80, 8595.50, 13421.15, 3565.13, -1177.24, -19421.56, -5010.19, -3213.76, -31599.96, 0.00, 0.00, 0.00
81, 8671.27, 13499.02, 3636.61, -1091.93, -19365.71, -4924.96, -3144.38, -31537.24, 0.00, 0.00, 0.00
82, 8674.67, 13502.26, 3636.81, -1096.22, -19366.49, -4925.34, -3142.12, -31529.68, 0.00, 0.00, 0.00
83, 8591.09, 13414.38, 3558.00, -1189.27, -19441.64, -5008.71, -3220.57, -31596.69, 0.00, 0.00, 0.00
84, 8579.69, 13396.27, 3546.33, -1196.31, -19448.95, -5013.18, -3231.48, -31613.46, 0.00, 0.00, 0.00
85, 8666.69, 13484.38, 3624.78, -1105.90, -19366.02, -4923.22, -3148.29, -31543.18, 0.00, 0.00, 0.00
86, 8688.86, 13504.32, 3637.55, -1100.20, -19353.50, -4913.34, -3134.30, -31526.44, 0.00, 0.00, 0.00
87, 8619.01, 13429.49, 3569.15, -1188.46, -19419.44, -4988.95, -3204.14, -31582.86, -0.01, 0.96, 0.21
88, 8585.55, 13396.88, 3537.21, -1219.11, -19444.88, -5011.89, -3230.07, -31611.89, 0.00, 0.00, 0.00
89, 8659.07, 13469.03, 3599.95, -1140.43, -19378.38, -4933.41, -3159.89, -31555.54, 0.00, 0.00, 0.00
90, 8698.54, 13507.85, 3629.88, -1107.24, -19344.00, -4900.60, -3125.24, -31520.00, 0.00, 0.00, 0.00
91, 8631.59, 13435.32, 3561.08, -1187.08, -19407.13, -4976.21, -3191.92, -31573.56, 0.00, 0.00, 0.00
92, 8590.92, 13384.16, 3522.55, -1232.50, -19447.54, -5019.02, -3235.24, -31613.55, 0.00, 0.00, 0.00
93, 8656.25, 13447.84, 3567.05, -1169.71, -19400.73, -4960.66, -3187.69, -31578.05, 0.00, 0.00, 0.00
94, 8720.44, 13524.57, 3626.66, -1098.61, -19340.00, -4895.68, -3124.77, -31514.13, 0.00, 0.00, 0.00
95, 8651.60, 13460.47, 3588.89, -1144.45, -19376.93, -4941.43, -3161.32, -31538.62, 0.00, 0.00, 0.00
96, 8585.44, 13393.08, 3534.21, -1207.24, -19429.34, -5000.08, -3212.30, -31589.99, 0.00, 0.00, 0.00
97, 8630.30, 13443.03, 3570.42, -1155.67, -19386.49, -4950.04, -3165.39, -31560.68, -0.00, 0.96, 0.20
98, 8700.28, 13515.85, 3634.17, -1085.22, -19304.57, -4879.30, -3101.57, -31500.16, 0.00, 0.00, 0.00
99, 8650.75, 13463.37, 3592.33, -1141.15, -19357.59, -4926.79, -3145.65, -31528.63, 0.00, 0.00, 0.00
100, 8573.93, 13384.40, 3531.49, -1217.68, -19421.74, -4993.67, -3206.78, -31584.15, 0.00, 0.00, 0.00
101, 8592.66, 13400.90, 3551.42, -1199.55, -19408.06, -4967.59, -3189.64, -31575.39, 0.00, 0.00, 0.00
102, 8659.04, 13463.77, 3612.91, -1134.35, -19348.59, -4904.96, -3130.36, -31524.92, 0.00, 0.00, 0.00
103, 8661.66, 13461.00, 3612.91, -1147.85, -19349.55, -4917.56, -3135.03, -31518.69, 0.00, 0.00, 0.00
104, 8602.78, 13399.18, 3556.79, -1218.89, -19404.60, -4981.94, -3190.22, -31564.60, 0.00, 0.00, 0.00
105, 8612.91, 13414.02, 3568.46, -1199.42, -19394.59, -4961.06, -3179.04, -31561.13, 0.00, 0.00, 0.00
106, 8680.81, 13483.89, 3624.42, -1127.27, -19336.61, -4894.72, -3121.80, -31516.09, -0.01, 0.97, 0.21
107, 8680.66, 13483.98, 3622.46, -1138.58, -19341.88, -4905.38, -3125.49, -31514.26, 0.00, 0.00, 0.00
108, 8605.56, 13411.38, 3558.13, -1219.89, -19406.59, -4979.32, -3189.62, -31565.71, 0.00, 0.00, 0.00
109, 8588.79, 13394.15, 3540.14, -1233.73, -19426.17, -4989.89, -3203.59, -31586.28, 0.00, 0.00, 0.00
110, 8657.75, 13463.15, 3596.64, -1159.72, -19366.22, -4920.02, -3136.04, -31534.67, 0.00, 0.00, 0.00
111, 8686.20, 13489.01, 3612.44, -1144.72, -19326.86, -4903.06, -3114.20, -31509.92, 0.00, 0.00, 0.00
112, 8628.11, 13429.29, 3555.94, -1215.38, -19394.85, -4963.90, -3174.26, -31551.74, 0.00, 0.00, 0.00
113, 8593.04, 13397.25, 3531.42, -1240.12, -19426.21, -4980.64, -3197.51, -31574.90, 0.00, 0.00, 0.00
114, 8648.56, 13457.40, 3581.73, -1173.82, -19374.80, -4917.88, -3146.54, -31535.27, 0.00, 0.00, 0.00
115, 8691.68, 13499.45, 3616.69, -1136.05, -19338.88, -4885.20, -3113.53, -31501.50, 0.00, 0.00, 0.00
116, 8645.57, 13452.13, 3573.33, -1193.23, -19380.91, -4936.40, -3159.26, -31531.40, -0.00, 0.96, 0.22
117, 8611.75, 13420.86, 3546.37, -1228.23, -19406.83, -4966.87, -3188.28, -31558.70, 0.00, 0.00, 0.00
118, 8647.13, 13455.86, 3577.33, -1189.76, -19377.64, -4926.86, -3157.16, -31540.52, 0.00, 0.00, 0.00
119, 8670.53, 13476.00, 3588.62, -1175.05, -19368.26, -4914.72, -3146.57, -31532.70, 0.00, 0.00, 0.00
120, 8646.35, 13451.06, 3569.35, -1208.27, -19385.62, -4939.22, -3163.98, -31538.04, 0.00, 0.00, 0.00
121, 8626.05, 13432.71, 3561.53, -1223.65, -19391.63, -4952.57, -3166.77, -31543.52, 0.00, 0.00, 0.00
122, 8645.14, 13447.14, 3574.22, -1203.80, -19378.25, -4934.80, -3148.44, -31539.96, 0.00, 0.00, 0.00
123, 8641.68, 13443.99, 3567.85, -1205.65, -19364.21, -4938.64, -3153.41, -31550.43, 0.00, 0.00, 0.00
124, 8623.44, 13428.01, 3557.24, -1223.51, -19384.01, -4954.08, -3169.99, -31555.45, 0.00, 0.00, 0.00
125, 8635.06, 13440.17, 3579.36, -1207.60, -19367.36, -4934.13, -3149.90, -31528.07, 0.00, 0.00, 0.00
126, 8667.85, 13473.21, 3610.43, -1174.90, -19334.82, -4903.55, -3118.47, -31505.45, -0.01, 0.96, 0.22
127, 8662.55, 13463.17, 3594.14, -1185.96, -19355.60, -4917.99, -3135.64, -31528.77, 0.00, 0.00, 0.00
128, 8644.58, 13445.09, 3570.71, -1209.34, -19380.30, -4943.78, -3161.10, -31546.11, 0.00, 0.00, 0.00
129, 8656.05, 13463.19, 3588.62, -1193.72, -19363.18, -4924.29, -3146.59, -31521.26, 0.00, 0.00, 0.00
130, 8672.83, 13482.19, 3610.61, -1171.95, -19340.43, -4900.93, -3124.15, -31506.37, 0.00, 0.00, 0.00
131, 8655.13, 13462.92, 3588.21, -1192.15, -19364.37, -4926.57, -3148.29, -31541.08, 0.00, 0.00, 0.00
132, 8627.46, 13435.34, 3555.63, -1224.96, -19400.58, -4958.13, -3179.40, -31566.85, 0.00, 0.00, 0.00
133, 8642.46, 13454.07, 3569.22, -1206.68, -19374.38, -4932.52, -3155.37, -31530.08, 0.00, 0.00, 0.00
134, 8659.20, 13469.67, 3587.03, -1189.07, -19342.77, -4912.27, -3137.47, -31514.04, 0.00, 0.00, 0.00
135, 8651.78, 13459.01, 3572.05, -1203.04, -19374.51, -4929.10, -3155.86, -31539.79, 0.00, 0.00, 0.00
136, 8628.56, 13436.59, 3546.17, -1230.04, -19403.04, -4956.25, -3182.91, -31564.53, -0.00, 0.96, 0.22
137, 8627.79, 13438.61, 3549.52, -1228.36, -19398.16, -4953.06, -3182.93, -31552.50, 0.00, 0.00, 0.00
138, 8644.02, 13456.35, 3573.51, -1211.11, -19373.31, -4931.13, -3161.70, -31534.31, 0.00, 0.00, 0.00
139, 8635.55, 13444.33, 3560.43, -1226.62, -19385.76, -4949.48, -3176.07, -31562.81, 0.00, 0.00, 0.00
140, 8636.89, 13444.24, 3558.24, -1232.54, -19392.17, -4955.49, -3181.28, -31566.41, 0.00, 0.00, 0.00
141, 8630.23, 13440.89, 3559.29, -1234.31, -19394.29, -4952.70, -3183.11, -31555.90, 0.00, 0.00, 0.00
142, 8649.37, 13458.99, 3584.73, -1213.97, -19366.49, -4931.64, -3159.11, -31531.34, 0.00, 0.00, 0.00
143, 8652.81, 13459.59, 3583.01, -1214.84, -19366.58, -4938.22, -3159.75, -31544.81, 0.00, 0.00, 0.00
144, 8627.13, 13428.35, 3551.02, -1244.01, -19401.34, -4969.11, -3190.58, -31578.48, 0.00, 0.00, 0.00
145, 8615.61, 13419.90, 3548.27, -1247.36, -19412.31, -4967.32, -3192.79, -31567.03, 0.00, 0.00, 0.00
146, 8641.52, 13446.61, 3582.11, -1215.60, -19369.89, -4930.84, -3155.46, -31524.86, -0.01, 0.96, 0.21
147, 8648.63, 13455.33, 3591.21, -1204.96, -19346.35, -4922.37, -3147.35, -31525.10, 0.00, 0.00, 0.00
148, 8630.48, 13432.17, 3564.88, -1227.92, -19387.43, -4947.71, -3175.40, -31555.88, 0.00, 0.00, 0.00
149, 8617.02, 13424.97, 3551.54, -1236.57, -19402.92, -4954.71, -3187.56, -31557.58, 0.00, 0.00, 0.00
150, 8637.29, 13451.91, 3579.81, -1211.26, -19373.60, -4927.60, -3158.26, -31521.32, 0.00, 0.00, 0.00
151, 8665.61, 13476.96, 3607.19, -1184.13, -19348.32, -4906.14, -3134.92, -31505.59, 0.00, 0.00, 0.00
152, 8654.62, 13462.70, 3589.38, -1200.87, -19365.35, -4928.25, -3153.09, -31533.44, 0.00, 0.00, 0.00
153, 8631.71, 13437.06, 3564.43, -1224.34, -19390.50, -4952.61, -3178.02, -31551.79, 0.00, 0.00, 0.00
154, 8639.66, 13449.36, 3583.63, -1211.29, -19373.64, -4931.13, -3163.33, -31528.16, 0.00, 0.00, 0.00
155, 8660.09, 13469.56, 3610.19, -1189.72, -19343.91, -4907.08, -3136.66, -31510.75, 0.00, 0.00, 0.00
156, 8643.84, 13450.63, 3592.69, -1211.67, -19361.44, -4930.73, -3155.91, -31542.11, -0.00, 0.96, 0.22
157, 8621.58, 13428.41, 3569.62, -1239.52, -19385.82, -4955.63, -3180.34, -31563.05, 0.00, 0.00, 0.00
158, 8618.74, 13434.14, 3569.64, -1239.67, -19380.73, -4949.15, -3171.71, -31544.57, 0.00, 0.00, 0.00
159, 8644.63, 13460.80, 3598.72, -1213.74, -19325.59, -4918.08, -3139.10, -31514.88, 0.00, 0.00, 0.00
160, 8652.56, 13465.20, 3598.72, -1212.49, -19330.71, -4918.90, -3137.09, -31524.83, 0.00, 0.00, 0.00
161, 8635.33, 13446.27, 3570.56, -1242.27, -19368.68, -4947.83, -3167.44, -31551.14, 0.00, 0.00, 0.00
162, 8645.05, 13458.12, 3577.17, -1233.95, -19360.72, -4932.02, -3158.23, -31524.25, 0.00, 0.00, 0.00
163, 8661.73, 13477.97, 3600.11, -1209.05, -19338.13, -4909.92, -3134.25, -31504.51, 0.00, 0.00, 0.00
164, 8653.57, 13470.17, 3586.36, -1215.91, -19352.27, -4922.48, -3147.62, -31527.13, 0.00, 0.00, 0.00
165, 8633.50, 13448.33, 3562.55, -1235.96, -19380.91, -4944.18, -3176.09, -31551.30, 0.00, 0.00, 0.00
166, 8635.69, 13448.82, 3563.76, -1233.44, -19379.48, -4940.94, -3177.28, -31540.57, -0.01, 0.96, 0.21
167, 8654.89, 13468.47, 3585.42, -1208.60, -19355.56, -4912.18, -3151.24, -31510.33, 0.00, 0.00, 0.00
168, 8650.88, 13465.83, 3579.32, -1212.72, -19363.25, -4919.31, -3157.52, -31527.85, 0.00, 0.00, 0.00
169, 8634.84, 13453.13, 3553.35, -1232.94, -19386.81, -4944.25, -3180.18, -31555.14, 0.00, 0.00, 0.00
170, 8627.01, 13445.33, 3541.99, -1240.34, -19397.78, -4948.83, -3190.11, -31553.82, 0.00, 0.00, 0.00
171, 8648.74, 13468.22, 3568.03, -1212.74, -19370.42, -4922.46, -3165.77, -31523.16, 0.00, 0.00, 0.00
172, 8652.38, 13472.20, 3573.55, -1210.03, -19369.48, -4919.02, -3159.66, -31528.41, 0.00, 0.00, 0.00
173, 8634.43, 13449.56, 3547.76, -1237.86, -19397.67, -4948.90, -3187.52, -31563.03, 0.00, 0.00, 0.00
174, 8619.91, 13432.17, 3529.76, -1257.20, -19420.00, -4966.94, -3208.50, -31572.64, 0.00, 0.00, 0.00
175, 8639.71, 13454.57, 3559.54, -1229.70, -19392.69, -4934.37, -3178.02, -31532.46, 0.00, 0.00, 0.00
176, 8665.35, 13485.57, 3589.89, -1195.95, -19342.35, -4908.55, -3148.22, -31511.04, -0.00, 0.97, 0.22
177, 8643.22, 13456.00, 3564.88, -1221.19, -19381.55, -4942.37, -3180.41, -31552.53, 0.00, 0.00, 0.00
178, 8620.73, 13434.58, 3538.75, -1245.26, -19416.87, -4966.36, -3206.83, -31571.62, 0.00, 0.00, 0.00
179, 8629.47, 13447.50, 3555.34, -1227.71, -19398.50, -4945.39, -3188.30, -31543.50, 0.00, 0.00, 0.00
180, 8650.88, 13468.78, 3583.05, -1200.74, -19367.61, -4918.86, -3158.21, -31520.00, 0.00, 0.00, 0.00
181, 8645.83, 13458.14, 3567.45, -1214.93, -19379.21, -4936.38, -3172.63, -31545.89, 0.00, 0.00, 0.00
182, 8633.83, 13441.89, 3544.58, -1240.81, -19396.46, -4957.08, -3192.30, -31564.69, 0.00, 0.00, 0.00
183, 8630.75, 13448.66, 3550.55, -1239.23, -19386.61, -4945.68, -3181.41, -31544.93, 0.00, 0.00, 0.00
184, 8639.91, 13461.38, 3567.67, -1226.17, -19364.01, -4923.69, -3159.87, -31522.44, 0.00, 0.00, 0.00
185, 8643.22, 13461.81, 3564.28, -1233.97, -19369.62, -4935.85, -3168.07, -31542.69, -0.00, 0.97, 0.21
186, 8636.74, 13453.04, 3549.05, -1251.85, -19385.06, -4954.69, -3184.14, -31558.67, 0.00, 0.00, 0.00
187, 8626.07, 13446.72, 3541.05, -1263.34, -19393.76, -4962.29, -3195.27, -31558.90, 0.00, 0.00, 0.00
188, 8640.25, 13462.70, 3563.67, -1245.04, -19376.12, -4942.55, -3172.90, -31535.54, 0.00, 0.00, 0.00
189, 8640.13, 13460.35, 3559.60, -1245.06, -19369.26, -4949.39, -3175.60, -31550.51, 0.00, 0.00, 0.00
190, 8622.36, 13440.08, 3535.22, -1268.55, -19390.07, -4974.65, -3204.10, -31578.41, 0.00, 0.00, 0.00
191, 8617.22, 13439.66, 3533.90, -1269.36, -19407.55, -4970.07, -3204.64, -31566.18, 0.00, 0.00, 0.00
192, 8633.09, 13456.26, 3557.24, -1245.53, -19384.93, -4943.58, -3176.81, -31536.57, 0.00, 0.00, 0.00
193, 8639.40, 13461.83, 3561.73, -1241.46, -19380.97, -4944.23, -3175.65, -31545.51, 0.00, 0.00, 0.00
194, 8622.48, 13441.20, 3537.72, -1265.96, -19402.10, -4971.01, -3200.19, -31574.65, 0.00, 0.00, 0.00
195, 8618.25, 13437.71, 3533.81, -1269.15, -19406.50, -4971.32, -3204.57, -31567.50, -0.00, 0.96, 0.22
196, 8628.29, 13453.74, 3557.03, -1247.61, -19381.04, -4944.50, -3178.44, -31537.04, 0.00, 0.00, 0.00
197, 8638.57, 13463.21, 3569.86, -1234.26, -19365.80, -4933.52, -3165.03, -31531.31, 0.00, 0.00, 0.00
198, 8630.03, 13447.70, 3552.32, -1251.18, -19385.62, -4953.28, -3183.89, -31555.95, 0.00, 0.00, 0.00
199, 8634.32, 13454.03, 3539.87, -1261.80, -19398.94, -4961.84, -3198.18, -31558.94, 0.00, 0.00, 0.00
200, 8640.27, 13464.98, 3544.76, -1258.16, -19392.95, -4953.37, -3191.90, -31546.74, 0.00, 0.00, 0.00
201, 8628.42, 13452.13, 3564.23, -1245.66, -19372.79, -4941.68, -3173.08, -31537.57, 0.00, 0.00, 0.00
202, 8619.19, 13438.25, 3566.24, -1249.10, -19369.08, -4943.58, -3170.44, -31544.57, 0.00, 0.00, 0.00
203, 8609.58, 13424.21, 3552.03, -1267.30, -19381.40, -4960.61, -3186.29, -31558.25, 0.00, 0.00, 0.00
204, 8620.38, 13435.75, 3560.83, -1259.41, -19369.28, -4952.14, -3175.94, -31539.67, 0.00, 0.00, 0.00
205, 8649.92, 13458.83, 3582.54, -1246.27, -19348.32, -4930.97, -3152.31, -31520.32, -0.00, 0.97, 0.22
206, 8655.40, 13454.21, 3574.04, -1260.44, -19357.64, -4946.82, -3162.15, -31542.98, 0.00, 0.00, 0.00
207, 8632.85, 13426.33, 3542.28, -1296.04, -19387.14, -4977.08, -3192.54, -31571.77, 0.00, 0.00, 0.00
208, 8642.19, 13443.99, 3557.62, -1281.74, -19367.47, -4956.54, -3173.77, -31541.82, 0.00, 0.00, 0.00
209, 8656.05, 13462.95, 3578.29, -1259.77, -19343.11, -4932.94, -3149.83, -31521.35, 0.00, 0.00, 0.00
210, 8647.96, 13453.31, 3561.59, -1275.66, -19362.13, -4950.93, -3168.96, -31548.35, 0.00, 0.00, 0.00
211, 8621.78, 13430.29, 3529.70, -1303.15, -19399.99, -4978.74, -3198.60, -31575.57, 0.00, 0.00, 0.00
212, 8608.19, 13419.56, 3519.80, -1315.27, -19405.49, -4986.56, -3211.10, -31574.72, 0.00, 0.00, 0.00
213, 8636.02, 13449.42, 3560.16, -1281.85, -19359.20, -4955.85, -3178.95, -31541.22, 0.00, 0.00, 0.00
214, 8656.00, 13466.08, 3580.01, -1263.19, -19356.43, -4941.34, -3163.06, -31536.05, 0.00, 0.00, 0.00
215, 8635.66, 13445.83, 3554.26, -1288.18, -19389.18, -4967.61, -3191.52, -31566.81, -0.01, 0.97, 0.21
216, 8619.41, 13431.81, 3541.99, -1301.30, -19403.17, -4981.33, -3207.39, -31570.99, 0.00, 0.00, 0.00
217, 8632.00, 13446.92, 3560.50, -1283.35, -19381.76, -4958.87, -3189.48, -31547.41, 0.00, 0.00, 0.00
218, 8637.05, 13453.87, 3560.25, -1280.60, -19379.39, -4957.19, -3186.38, -31556.01, 0.00, 0.00, 0.00
219, 8625.00, 13440.75, 3543.96, -1295.64, -19397.96, -4976.03, -3203.54, -31579.01, 0.00, 0.00, 0.00
220, 8618.92, 13434.38, 3536.69, -1300.56, -19404.87, -4979.57, -3209.62, -31574.86, 0.00, 0.00, 0.00
221, 8628.18, 13448.78, 3554.78, -1280.11, -19384.57, -4955.40, -3189.33, -31547.03, 0.00, 0.00, 0.00
222, 8641.47, 13460.04, 3570.29, -1264.86, -19367.65, -4942.66, -3170.62, -31540.01, 0.00, 0.00, 0.00
223, 8635.44, 13449.67, 3557.91, -1274.18, -19381.11, -4954.40, -3182.13, -31555.28, 0.00, 0.00, 0.00
224, 8624.51, 13440.35, 3541.19, -1287.15, -19403.73, -4967.88, -3198.58, -31565.18, 0.00, 0.00, 0.00
225, 8635.62, 13452.13, 3554.46, -1272.37, -19385.31, -4950.62, -3186.02, -31542.20, -0.00, 0.96, 0.21
226, 8651.53, 13469.36, 3577.35, -1251.90, -19349.84, -4932.11, -3168.76, -31532.10, 0.00, 0.00, 0.00
227, 8648.31, 13464.00, 3569.64, -1261.13, -19374.04, -4945.06, -3180.45, -31552.50, 0.00, 0.00, 0.00
228, 8626.28, 13445.07, 3540.81, -1287.71, -19405.05, -4971.79, -3205.49, -31574.21, 0.00, 0.00, 0.00
229, 8639.46, 13462.46, 3560.34, -1270.20, -19385.15, -4949.91, -3185.73, -31544.08, 0.00, 0.00, 0.00
230, 8654.80, 13475.67, 3579.21, -1252.95, -19365.39, -4928.36, -3163.87, -31527.49, 0.00, 0.00, 0.00
231, 8639.35, 13454.43, 3555.76, -1280.58, -19391.41, -4956.32, -3190.15, -31562.96, 0.00, 0.00, 0.00
232, 8631.66, 13444.60, 3544.90, -1293.52, -19403.04, -4968.93, -3202.00, -31569.47, 0.00, 0.00, 0.00
233, 8631.13, 13448.82, 3547.91, -1290.52, -19395.08, -4958.44, -3192.43, -31547.50, 0.00, 0.00, 0.00
234, 8662.37, 13479.80, 3581.64, -1259.07, -19357.13, -4921.32, -3155.55, -31511.47, 0.00, 0.00, 0.00
235, 8654.55, 13468.11, 3569.73, -1270.96, -19372.57, -4936.87, -3169.28, -31537.93, -0.00, 0.96, 0.21
236, 8621.98, 13431.88, 3530.19, -1313.03, -19414.66, -4978.60, -3209.98, -31577.92, 0.00, 0.00, 0.00
237, 8628.58, 13443.72, 3538.15, -1305.16, -19409.74, -4967.59, -3200.08, -31556.59, 0.00, 0.00, 0.00
238, 8658.84, 13475.60, 3578.94, -1269.89, -19350.71, -4931.96, -3160.63, -31519.80, 0.00, 0.00, 0.00
239, 8661.39, 13476.31, 3580.88, -1270.47, -19353.19, -4931.82, -3160.96, -31528.10, 0.00, 0.00, 0.00
240, 8639.87, 13452.20, 3548.56, -1302.48, -19398.68, -4963.50, -3192.79, -31560.57, 0.00, 0.00, 0.00
241, 8643.13, 13457.05, 3553.17, -1297.38, -19396.91, -4958.27, -3190.42, -31546.25, 0.00, 0.00, 0.00
242, 8656.70, 13476.87, 3580.12, -1275.32, -19370.80, -4934.04, -3165.66, -31519.31, 0.00, 0.00, 0.00
243, 8659.11, 13479.24, 3589.06, -1272.89, -19365.26, -4933.61, -3161.41, -31527.29, 0.00, 0.00, 0.00
244, 8642.77, 13457.40, 3567.96, -1296.54, -19388.60, -4959.05, -3185.82, -31555.48, 0.00, 0.00, 0.00
245, 8635.22, 13453.13, 3559.72, -1304.96, -19397.38, -4965.42, -3195.23, -31555.21, -0.01, 0.96, 0.22
246, 8647.44, 13473.88, 3582.76, -1283.86, -19377.42, -4941.48, -3175.18, -31527.56, 0.00, 0.00, 0.00
247, 8667.18, 13487.67, 3600.82, -1265.91, -19355.31, -4919.13, -3155.49, -31516.05, 0.00, 0.00, 0.00
248, 8656.32, 13471.46, 3575.16, -1284.53, -19376.93, -4939.00, -3176.72, -31544.46, 0.00, 0.00, 0.00
249, 8634.12, 13453.58, 3547.80, -1304.58, -19401.69, -4960.23, -3201.02, -31557.31, 0.00, 0.00, 0.00
250, 8653.28, 13477.97, 3570.96, -1279.84, -19381.78, -4934.42, -3174.77, -31522.82, 0.00, 0.00, 0.00
251, 8679.14, 13501.24, 3594.56, -1255.23, -19353.84, -4909.14, -3145.16, -31503.96, 0.00, 0.00, 0.00
252, 8666.51, 13482.48, 3578.34, -1277.89, -19352.99, -4931.98, -3165.03, -31532.46, 0.00, 0.00, 0.00
253, 8654.48, 13473.03, 3565.75, -1294.64, -19378.27, -4947.31, -3181.19, -31542.83, 0.00, 0.00, 0.00
254, 8652.65, 13478.53, 3572.23, -1291.84, -19377.67, -4940.16, -3175.56, -31526.49, 0.00, 0.00, 0.00
255, 8663.98, 13490.46, 3591.93, -1278.25, -19357.15, -4922.48, -3154.26, -31510.30, -0.01, 0.96, 0.21
0, 8664.94, 13489.23, 3587.25, -1287.35, -19361.64, -4933.75, -3159.26, -31527.47, 0.00, 0.00, 0.00
1, 8643.93, 13465.05, 3557.57, -1320.76, -19388.91, -4964.86, -3186.82, -31553.60, 0.00, 0.00, 0.00
2, 8647.31, 13471.71, 3563.23, -1319.78, -19379.12, -4954.58, -3177.61, -31534.82, 0.00, 0.00, 0.00
3, 8651.44, 13475.22, 3574.31, -1317.97, -19368.21, -4945.35, -3167.40, -31527.71, 0.00, 0.00, 0.00
4, 8648.29, 13468.51, 3568.86, -1325.37, -19374.49, -4955.07, -3171.76, -31546.85, 0.00, 0.00, 0.00
5, 8638.77, 13455.57, 3551.38, -1341.60, -19393.98, -4977.33, -3190.31, -31568.64, 0.00, 0.00, 0.00
6, 8639.15, 13456.93, 3554.58, -1337.24, -19397.83, -4967.27, -3186.78, -31545.22, 0.00, 0.00, 0.00
7, 8651.06, 13472.13, 3575.97, -1319.45, -19365.86, -4945.59, -3164.29, -31520.92, 0.00, 0.00, 0.00
8, 8655.27, 13474.37, 3580.66, -1317.28, -19350.20, -4947.02, -3163.26, -31532.28, 0.00, 0.00, 0.00
9, 8639.62, 13454.50, 3557.08, -1339.36, -19390.32, -4972.23, -3189.15, -31559.81, -0.01, 0.96, 0.21
10, 8637.90, 13456.33, 3552.68, -1339.56, -19397.09, -4968.70, -3192.86, -31550.40, 0.00, 0.00, 0.00
11, 8652.07, 13475.98, 3574.96, -1316.90, -19373.64, -4943.24, -3169.90, -31523.38, 0.00, 0.00, 0.00
12, 8661.32, 13483.38, 3581.55, -1309.54, -19364.59, -4937.10, -3161.54, -31526.40, 0.00, 0.00, 0.00
13, 8647.22, 13462.03, 3559.98, -1332.37, -19388.08, -4962.67, -3184.39, -31557.18, 0.00, 0.00, 0.00
14, 8639.44, 13453.47, 3557.08, -1336.37, -19395.32, -4965.42, -3193.15, -31554.20, 0.00, 0.00, 0.00
15, 8644.29, 13463.48, 3570.11, -1322.51, -19380.44, -4946.84, -3180.18, -31532.54, 0.00, 0.00, 0.00
16, 8655.74, 13475.91, 3581.73, -1311.47, -19365.69, -4937.48, -3167.47, -31528.14, 0.00, 0.00, 0.00
17, 8642.15, 13456.49, 3561.64, -1332.81, -19390.18, -4962.24, -3190.62, -31557.44, 0.00, 0.00, 0.00
18, 8637.16, 13451.57, 3552.68, -1342.65, -19398.01, -4969.84, -3200.46, -31558.56, -0.01, 0.96, 0.21
19, 8648.90, 13467.15, 3568.46, -1331.72, -19381.38, -4949.21, -3181.37, -31532.43, 0.00, 0.00, 0.00
20, 8649.07, 13466.68, 3574.09, -1336.97, -19375.47, -4948.72, -3174.42, -31533.44, 0.00, 0.00, 0.00
21, 8642.06, 13460.40, 3562.22, -1352.95, -19391.41, -4962.96, -3183.60, -31552.32, 0.00, 0.00, 0.00
22, 8614.25, 13432.41, 3526.19, -1388.00, -19419.11, -4994.70, -3214.27, -31580.00, 0.00, 0.00, 0.00
23, 8622.10, 13444.80, 3540.87, -1377.25, -19391.52, -4979.61, -3201.02, -31554.83, 0.00, 0.00, 0.00
24, 8662.33, 13485.05, 3585.18, -1333.89, -19359.00, -4933.79, -3152.78, -31511.80, 0.00, 0.00, 0.00
25, 8655.02, 13470.90, 3563.27, -1353.96, -19384.42, -4954.35, -3174.26, -31542.56, 0.00, 0.00, 0.00
26, 8632.31, 13451.35, 3541.10, -1377.11, -19404.67, -4976.59, -3196.99, -31563.84, 0.00, 0.00, 0.00
27, 8631.15, 13452.82, 3541.86, -1377.11, -19402.12, -4972.35, -3196.17, -31552.26, 0.00, 0.00, 0.00
28, 8650.01, 13475.40, 3568.52, -1355.30, -19371.56, -4943.74, -3166.75, -31520.25, -0.01, 0.96, 0.21
29, 8648.58, 13476.67, 3570.00, -1352.75, -19368.86, -4942.24, -3162.08, -31525.26, 0.00, 0.00, 0.00
30, 8618.90, 13442.14, 3536.63, -1388.87, -19404.33, -4983.81, -3198.02, -31562.72, 0.00, 0.00, 0.00
31, 8615.21, 13441.11, 3536.83, -1392.11, -19404.11, -4982.18, -3198.53, -31552.35, 0.00, 0.00, 0.00
32, 8637.99, 13467.82, 3568.61, -1363.17, -19372.48, -4949.08, -3166.82, -31519.02, 0.00, 0.00, 0.00
33, 8648.54, 13476.38, 3573.55, -1355.34, -19369.22, -4945.35, -3160.96, -31524.88, 0.00, 0.00, 0.00
34, 8637.23, 13463.55, 3547.96, -1377.85, -19394.41, -4971.05, -3183.54, -31553.11, 0.00, 0.00, 0.00
35, 8627.77, 13457.29, 3532.45, -1388.54, -19410.86, -4981.78, -3198.53, -31557.31, 0.00, 0.00, 0.00
36, 8654.80, 13487.06, 3566.18, -1356.06, -19378.89, -4949.77, -3166.57, -31520.50, 0.00, 0.00, 0.00
37, 8669.88, 13499.09, 3582.34, -1342.80, -19364.99, -4941.34, -3154.64, -31520.16, 0.00, 0.00, 0.00
38, 8650.46, 13477.92, 3556.72, -1367.32, -19398.56, -4971.09, -3184.54, -31557.29, -0.01, 0.97, 0.21
39, 8621.94, 13449.60, 3530.66, -1394.21, -19420.74, -4996.58, -3208.39, -31575.21, 0.00, 0.00, 0.00
40, 8636.80, 13465.38, 3557.53, -1372.64, -19378.60, -4971.09, -3185.30, -31541.60, 0.00, 0.00, 0.00
41, 8655.85, 13485.79, 3578.13, -1350.43, -19366.96, -4947.36, -3163.31, -31525.41, 0.00, 0.00, 0.00
42, 8640.87, 13466.30, 3550.89, -1376.38, -19395.30, -4972.84, -3188.74, -31559.30, 0.00, 0.00, 0.00
43, 8626.68, 13452.93, 3531.33, -1393.94, -19410.39, -4987.39, -3204.82, -31565.56, 0.00, 0.00, 0.00
44, 8644.07, 13472.85, 3552.16, -1372.22, -19380.33, -4958.94, -3178.40, -31529.57, 0.00, 0.00, 0.00
45, 8660.72, 13488.29, 3568.23, -1356.55, -19360.12, -4940.47, -3158.99, -31516.74, 0.00, 0.00, 0.00
46, 8651.09, 13478.06, 3547.20, -1377.02, -19377.17, -4962.18, -3177.21, -31546.11, 0.00, 0.00, 0.00
47, 8633.07, 13452.53, 3519.91, -1405.43, -19403.50, -4985.80, -3203.47, -31567.66, 0.00, 0.00, 0.00
48, 8643.75, 13462.57, 3531.31, -1393.83, -19387.63, -4966.56, -3190.64, -31542.98, -0.01, 0.98, 0.21
49, 8661.05, 13479.04, 3555.65, -1372.44, -19358.22, -4942.28, -3164.25, -31521.52, 0.00, 0.00, 0.00
50, 8652.54, 13463.66, 3541.39, -1386.37, -19367.58, -4958.04, -3173.46, -31544.17, 0.00, 0.00, 0.00
51, 8638.12, 13443.10, 3516.62, -1405.39, -19387.03, -4981.22, -3192.75, -31559.68, 0.00, 0.00, 0.00
52, 8642.61, 13449.00, 3520.80, -1396.22, -19379.59, -4965.53, -3186.24, -31539.47, 0.00, 0.00, 0.00
53, 8663.63, 13471.80, 3546.64, -1371.39, -19350.98, -4936.99, -3156.98, -31514.93, 0.00, 0.00, 0.00
54, 8666.55, 13469.70, 3540.92, -1379.17, -19356.59, -4946.08, -3161.68, -31533.71, 0.00, 0.00, 0.00
55, 8647.82, 13448.49, 3511.08, -1410.31, -19390.41, -4972.91, -3188.79, -31563.41, 0.00, 0.00, 0.00
56, 8642.82, 13444.19, 3506.68, -1414.66, -19372.61, -4972.03, -3190.47, -31555.21, 0.00, 0.00, 0.00
57, 8664.00, 13466.99, 3535.67, -1387.19, -19343.47, -4942.48, -3163.76, -31525.73, 0.00, 0.00, 0.00
58, 8669.21, 13468.54, 3538.26, -1383.46, -19355.52, -4939.76, -3162.86, -31534.98, -0.01, 0.97, 0.22
59, 8656.18, 13451.23, 3519.57, -1402.68, -19378.54, -4960.88, -3185.46, -31559.57, 0.00, 0.00, 0.00
60, 8652.27, 13449.13, 3516.22, -1404.94, -19388.64, -4967.70, -3196.84, -31559.75, 0.00, 0.00, 0.00
61, 8663.45, 13465.16, 3536.00, -1380.78, -19365.86, -4944.07, -3175.20, -31532.19, 0.00, 0.00, 0.00
62, 8672.81, 13472.76, 3541.10, -1371.55, -19355.22, -4931.44, -3163.22, -31527.09, 0.00, 0.00, 0.00
63, 8670.53, 13459.19, 3520.42, -1395.40, -19374.80, -4957.46, -3185.39, -31557.85, 0.00, 0.00, 0.00
64, 8675.63, 13459.35, 3503.26, -1414.51, -19387.54, -4973.11, -3199.23, -31564.26, 0.00, 0.00, 0.00
65, 8684.23, 13481.97, 3527.08, -1385.52, -19353.35, -4940.32, -3165.61, -31522.46, 0.00, 0.00, 0.00
66, 8680.77, 13487.53, 3549.66, -1361.42, -19326.55, -4912.89, -3137.47, -31500.36, 0.00, 0.00, 0.00
67, 8667.54, 13472.27, 3533.50, -1381.58, -19343.13, -4932.52, -3153.76, -31527.38, 0.00, 0.00, 0.00
68, 8653.10, 13455.17, 3507.95, -1411.20, -19369.22, -4958.71, -3180.27, -31548.84, -0.01, 0.96, 0.22
69, 8662.26, 13468.62, 3517.56, -1406.30, -19361.37, -4951.38, -3172.56, -31534.60, 0.00, 0.00, 0.00
70, 8670.78, 13480.87, 3536.67, -1390.14, -19344.09, -4934.91, -3155.53, -31522.82, 0.00, 0.00, 0.00
71, 8657.25, 13467.35, 3526.12, -1401.83, -19359.83, -4948.18, -3170.08, -31543.36, 0.00, 0.00, 0.00
72, 8644.69, 13453.98, 3512.26, -1414.57, -19375.41, -4962.11, -3185.44, -31552.19, 0.00, 0.00, 0.00
73, 8658.22, 13466.95, 3522.48, -1400.07, -19369.17, -4941.95, -3171.15, -31524.43, 0.00, 0.00, 0.00
74, 8686.87, 13495.22, 3549.43, -1374.41, -19325.09, -4914.19, -3143.88, -31498.05, 0.00, 0.00, 0.00
75, 8674.35, 13482.88, 3532.11, -1389.59, -19342.46, -4930.66, -3159.33, -31525.59, 0.00, 0.00, 0.00
76, 8650.37, 13457.18, 3505.00, -1415.38, -19378.34, -4955.92, -3184.39, -31548.39, 0.00, 0.00, 0.00
77, 8651.31, 13462.48, 3507.26, -1412.23, -19379.32, -4950.71, -3183.60, -31533.64, 0.00, 0.00, 0.00
78, 8666.91, 13475.67, 3534.39, -1392.40, -19355.96, -4929.70, -3159.51, -31511.51, -0.01, 0.96, 0.22
79, 8660.99, 13464.13, 3524.83, -1404.02, -19364.57, -4943.13, -3171.53, -31536.63, 0.00, 0.00, 0.00
80, 8662.35, 13463.33, 3516.15, -1411.13, -19371.07, -4951.11, -3177.95, -31545.93, 0.00, 0.00, 0.00
81, 8655.82, 13460.22, 3509.92, -1414.55, -19374.20, -4950.04, -3180.63, -31535.70, 0.00, 0.00, 0.00
82, 8665.79, 13476.11, 3530.10, -1399.11, -19353.66, -4930.93, -3163.42, -31511.20, 0.00, 0.00, 0.00
83, 8679.79, 13486.24, 3541.88, -1391.66, -19344.85, -4931.40, -3155.62, -31518.17, 0.00, 0.00, 0.00
84, 8665.91, 13468.87, 3518.52, -1416.47, -19366.89, -4959.05, -3176.12, -31546.33, 0.00, 0.00, 0.00
85, 8660.47, 13463.37, 3511.55, -1423.56, -19370.89, -4962.96, -3178.35, -31538.80, 0.00, 0.00, 0.00
86, 8670.22, 13475.62, 3524.49, -1409.14, -19361.57, -4943.78, -3160.92, -31515.67, 0.00, 0.00, 0.00
87, 8671.16, 13476.78, 3524.51, -1407.82, -19358.53, -4939.31, -3156.49, -31521.90, 0.00, 0.00, 0.00
88, 8657.75, 13457.25, 3504.80, -1429.08, -19359.61, -4958.89, -3176.03, -31547.34, -0.01, 0.97, 0.22
89, 8657.90, 13462.03, 3505.80, -1427.99, -19371.81, -4956.41, -3180.47, -31538.36, 0.00, 0.00, 0.00
90, 8673.75, 13482.15, 3528.25, -1404.49, -19352.12, -4926.68, -3158.93, -31505.97, 0.00, 0.00, 0.00
91, 8675.45, 13479.64, 3526.84, -1406.04, -19351.34, -4927.40, -3161.52, -31515.91, 0.00, 0.00, 0.00
92, 8661.61, 13464.38, 3507.10, -1424.74, -19369.15, -4949.55, -3183.36, -31545.26, 0.00, 0.00, 0.00
93, 8649.88, 13451.30, 3491.99, -1438.76, -19384.82, -4964.93, -3200.93, -31554.65, 0.00, 0.00, 0.00
94, 8653.34, 13457.29, 3503.88, -1429.10, -19374.18, -4950.33, -3192.25, -31536.16, 0.00, 0.00, 0.00
95, 8674.06, 13476.22, 3531.42, -1411.47, -19349.48, -4930.86, -3164.65, -31517.26, 0.00, 0.00, 0.00
96, 8676.14, 13476.45, 3533.97, -1416.12, -19352.36, -4941.17, -3159.89, -31531.54, 0.00, 0.00, 0.00
97, 8648.69, 13447.46, 3506.94, -1448.44, -19381.06, -4971.16, -3186.73, -31558.83, 0.00, 0.00, 0.00
98, 8651.71, 13453.69, 3516.38, -1440.26, -19369.55, -4959.00, -3175.87, -31536.34, -0.01, 0.97, 0.22
99, 8671.98, 13477.88, 3538.91, -1415.07, -19346.93, -4932.23, -3151.31, -31510.42, 0.00, 0.00, 0.00
100, 8671.94, 13475.89, 3529.18, -1416.90, -19357.84, -4937.61, -3158.90, -31526.69, 0.00, 0.00, 0.00
101, 8650.46, 13453.80, 3495.86, -1442.58, -19388.51, -4964.59, -3185.55, -31550.80, 0.00, 0.00, 0.00
102, 8649.41, 13456.62, 3495.72, -1437.80, -19387.10, -4953.12, -3182.26, -31533.68, 0.00, 0.00, 0.00
103, 8665.64, 13475.29, 3520.44, -1413.66, -19367.41, -4930.88, -3156.07, -31509.81, 0.00, 0.00, 0.00
104, 8663.04, 13467.62, 3513.05, -1417.26, -19372.64, -4941.88, -3162.06, -31524.12, 0.00, 0.00, 0.00
105, 8651.80, 13454.03, 3496.04, -1438.49, -19380.66, -4966.24, -3184.39, -31547.83, 0.00, 0.00, 0.00
106, 8662.11, 13465.94, 3503.73, -1431.54, -19386.09, -4955.34, -3178.57, -31530.08, 0.00, 0.00, 0.00
107, 8676.03, 13484.49, 3524.91, -1411.11, -19363.27, -4931.06, -3154.03, -31503.87, -0.02, 0.96, 0.21
108, 8669.93, 13479.35, 3518.90, -1418.49, -19365.44, -4937.03, -3152.71, -31516.67, 0.00, 0.00, 0.00
109, 8648.40, 13453.13, 3489.69, -1449.15, -19387.59, -4968.66, -3177.26, -31548.79, 0.00, 0.00, 0.00
110, 8644.36, 13447.66, 3484.84, -1455.14, -19388.39, -4968.06, -3179.69, -31538.96, 0.00, 0.00, 0.00
111, 8657.46, 13468.85, 3508.40, -1433.33, -19363.54, -4941.32, -3152.62, -31505.86, 0.00, 0.00, 0.00
112, 8664.50, 13475.42, 3518.48, -1424.68, -19351.94, -4931.22, -3139.55, -31502.53, 0.00, 0.00, 0.00
113, 8654.44, 13462.19, 3502.70, -1439.83, -19370.33, -4948.81, -3155.66, -31526.17, 0.00, 0.00, 0.00
114, 8652.90, 13461.34, 3500.06, -1446.85, -19379.61, -4954.33, -3168.20, -31527.49, 0.00, 0.00, 0.00
115, 8657.84, 13470.64, 3513.20, -1435.14, -19368.08, -4941.14, -3159.93, -31508.54, 0.00, 0.00, 0.00
116, 8673.08, 13486.59, 3531.22, -1416.45, -19351.56, -4926.84, -3145.27, -31499.82, 0.00, 0.00, 0.00
117, 8669.97, 13480.67, 3520.94, -1427.63, -19365.91, -4943.02, -3161.99, -31526.26, -0.01, 0.96, 0.22
118, 8661.66, 13472.20, 3506.39, -1444.97, -19380.73, -4955.25, -3172.58, -31534.33, 0.00, 0.00, 0.00
119, 8655.40, 13472.31, 3507.26, -1444.55, -19363.58, -4949.88, -3173.21, -31523.02, 0.00, 0.00, 0.00
120, 8673.55, 13487.13, 3534.59, -1424.01, -19341.77, -4929.68, -3150.63, -31502.82, 0.00, 0.00, 0.00
121, 8674.17, 13482.93, 3531.53, -1431.23, -19357.55, -4938.19, -3155.98, -31520.61, 0.00, 0.00, 0.00
122, 8652.96, 13464.20, 3509.92, -1454.09, -19376.73, -4957.97, -3173.43, -31538.33, 0.00, 0.00, 0.00
123, 8649.81, 13465.54, 3515.62, -1449.02, -19368.43, -4948.92, -3164.45, -31520.70, 0.00, 0.00, 0.00
124, 8663.33, 13478.19, 3532.67, -1433.02, -19351.02, -4930.71, -3145.90, -31505.14, 0.00, 0.00, 0.00
125, 8666.40, 13479.62, 3529.34, -1433.60, -19349.05, -4932.27, -3143.19, -31514.19, 0.00, 0.00, 0.00
126, 8659.69, 13471.15, 3511.28, -1448.30, -19366.04, -4949.26, -3158.50, -31529.28, 0.00, 0.00, 0.00
127, 8648.25, 13463.28, 3496.82, -1459.70, -19381.35, -4960.21, -3174.69, -31533.33, -0.02, 0.97, 0.22
128, 8666.35, 13484.23, 3522.90, -1433.55, -19353.46, -4929.50, -3147.82, -31498.57, 0.00, 0.00, 0.00
129, 8670.42, 13482.10, 3519.13, -1434.56, -19359.02, -4934.13, -3151.57, -31513.28, 0.00, 0.00, 0.00
130, 8660.65, 13469.07, 3499.19, -1454.25, -19387.10, -4954.80, -3170.84, -31537.15, 0.00, 0.00, 0.00
131, 8645.39, 13455.95, 3487.16, -1466.59, -19382.70, -4965.57, -3184.43, -31539.94, 0.00, 0.00, 0.00
132, 8666.84, 13478.08, 3515.24, -1441.26, -19354.02, -4938.57, -3157.79, -31506.17, 0.00, 0.00, 0.00
133, 8679.05, 13491.38, 3526.32, -1430.51, -19353.41, -4927.08, -3147.33, -31505.88, 0.00, 0.00, 0.00
134, 8664.00, 13471.62, 3503.55, -1453.85, -19378.60, -4948.21, -3168.78, -31531.29, 0.00, 0.00, 0.00
135, 8654.77, 13464.69, 3495.86, -1462.59, -19387.72, -4952.77, -3177.68, -31528.05, 0.00, 0.00, 0.00
136, 8672.32, 13485.12, 3517.85, -1441.53, -19363.07, -4929.03, -3154.32, -31499.80, 0.00, 0.00, 0.00
137, 8687.09, 13501.41, 3531.55, -1432.81, -19347.27, -4918.17, -3139.44, -31496.15, -0.01, 0.97, 0.22
138, 8668.81, 13479.17, 3506.50, -1460.49, -19375.01, -4949.06, -3166.66, -31533.53, 0.00, 0.00, 0.00
139, 8649.19, 13460.18, 3488.19, -1477.67, -19392.75, -4967.38, -3187.76, -31547.18, 0.00, 0.00, 0.00
140, 8657.10, 13472.74, 3502.09, -1465.22, -19377.46, -4949.26, -3171.71, -31522.06, 0.00, 0.00, 0.00
141, 8682.74, 13495.13, 3529.74, -1442.11, -19355.29, -4926.12, -3147.33, -31503.51, 0.00, 0.00, 0.00
142, 8666.75, 13478.64, 3510.70, -1461.16, -19375.63, -4949.15, -3167.62, -31534.24, 0.00, 0.00, 0.00
143, 8647.80, 13462.81, 3490.27, -1479.51, -19397.27, -4966.71, -3187.22, -31546.83, 0.00, 0.00, 0.00
144, 8663.94, 13484.49, 3515.55, -1454.20, -19370.29, -4936.14, -3158.84, -31509.07, 0.00, 0.00, 0.00
145, 8684.35, 13504.32, 3538.46, -1436.01, -19328.67, -4916.18, -3137.00, -31491.42, 0.00, 0.00, 0.00
146, 8679.45, 13498.20, 3518.77, -1459.32, -19359.61, -4939.96, -3160.58, -31524.14, 0.00, 0.00, 0.00
147, 8655.67, 13476.45, 3489.00, -1487.42, -19393.58, -4970.25, -3186.67, -31548.86, -0.01, 0.96, 0.22
148, 8646.57, 13463.21, 3500.26, -1478.66, -19377.20, -4954.60, -3173.14, -31523.27, 0.00, 0.00, 0.00
149, 8653.43, 13469.67, 3521.16, -1459.05, -19352.92, -4936.40, -3151.04, -31503.46, 0.00, 0.00, 0.00
150, 8656.23, 13465.56, 3519.15, -1464.80, -19355.18, -4946.26, -3154.19, -31520.65, 0.00, 0.00, 0.00
151, 8646.97, 13453.72, 3495.79, -1490.15, -19383.23, -4972.59, -3179.98, -31546.87, 0.00, 0.00, 0.00
152, 8659.94, 13467.17, 3499.48, -1484.96, -19383.07, -4968.61, -3179.36, -31532.59, 0.00, 0.00, 0.00
153, 8691.63, 13503.05, 3533.43, -1452.44, -19350.15, -4934.97, -3149.45, -31498.35, 0.00, 0.00, 0.00
154, 8693.46, 13507.27, 3535.84, -1451.79, -19349.39, -4932.02, -3148.85, -31507.51, 0.00, 0.00, 0.00
155, 8672.77, 13486.06, 3509.96, -1478.41, -19377.08, -4955.63, -3173.43, -31534.42, 0.00, 0.00, 0.00
156, 8669.21, 13483.22, 3505.51, -1482.37, -19379.56, -4955.09, -3174.86, -31524.70, 0.00, 0.00, 0.00
157, 8681.60, 13499.02, 3524.78, -1465.56, -19358.20, -4930.12, -3153.76, -31497.61, -0.01, 0.96, 0.21
158, 8693.96, 13510.18, 3539.18, -1457.74, -19342.62, -4920.65, -3138.36, -31493.54, 0.00, 0.00, 0.00
159, 8690.89, 13503.25, 3529.63, -1469.67, -19354.06, -4937.66, -3152.91, -31514.42, 0.00, 0.00, 0.00
160, 8667.85, 13479.71, 3500.95, -1496.92, -19383.48, -4965.35, -3182.93, -31534.58, 0.00, 0.00, 0.00
161, 8682.04, 13497.53, 3523.10, -1481.34, -19367.72, -4947.94, -3167.40, -31509.79, 0.00, 0.00, 0.00
162, 8706.18, 13522.56, 3550.19, -1455.19, -19348.27, -4924.18, -3144.02, -31495.15, 0.00, 0.00, 0.00
163, 8692.24, 13506.51, 3530.70, -1474.03, -19361.24, -4944.70, -3163.91, -31520.12, 0.00, 0.00, 0.00
164, 8679.20, 13489.59, 3516.35, -1492.47, -19366.06, -4962.85, -3182.80, -31531.61, 0.00, 0.00, 0.00
165, 8690.63, 13504.32, 3531.08, -1476.47, -19362.42, -4941.95, -3167.15, -31504.60, 0.00, 0.00, 0.00
166, 8700.82, 13516.90, 3543.98, -1461.63, -19348.76, -4926.86, -3149.16, -31494.86, 0.00, 0.00, 0.00
167, 8685.98, 13499.40, 3523.44, -1478.05, -19363.63, -4943.58, -3161.03, -31518.57, -0.01, 0.97, 0.22
168, 8677.42, 13487.62, 3507.12, -1490.79, -19375.47, -4957.73, -3172.18, -31524.81, 0.00, 0.00, 0.00
169, 8679.85, 13493.43, 3512.38, -1484.87, -19369.37, -4944.61, -3164.90, -31506.19, 0.00, 0.00, 0.00
170, 8688.21, 13503.98, 3528.63, -1473.74, -19350.75, -4928.36, -3145.56, -31491.77, 0.00, 0.00, 0.00
171, 8680.63, 13494.11, 3518.50, -1486.55, -19359.16, -4947.42, -3155.95, -31514.60, 0.00, 0.00, 0.00
172, 8664.07, 13474.59, 3492.88, -1513.19, -19386.43, -4975.92, -3185.95, -31543.47, 0.00, 0.00, 0.00
173, 8674.98, 13490.69, 3504.73, -1500.00, -19374.69, -4957.48, -3178.24, -31522.80, 0.00, 0.00, 0.00
174, 8694.81, 13509.37, 3535.13, -1473.45, -19348.47, -4931.62, -3151.64, -31498.64, 0.00, 0.00, 0.00
175, 8682.83, 13495.29, 3519.35, -1490.86, -19373.24, -4953.97, -3168.34, -31530.08, 0.00, 0.00, 0.00
176, 8675.67, 13487.96, 3507.23, -1505.73, -19369.95, -4970.76, -3182.93, -31546.58, 0.00, 0.00, 0.00
177, 8669.35, 13486.80, 3502.05, -1514.13, -19374.56, -4974.43, -3189.79, -31540.05, -0.01, 0.97, 0.22
178, 8691.61, 13510.02, 3529.90, -1489.54, -19356.83, -4945.03, -3160.92, -31508.00, 0.00, 0.00, 0.00
179, 8694.81, 13511.41, 3532.85, -1486.55, -19355.74, -4943.22, -3158.10, -31517.10, 0.00, 0.00, 0.00
180, 8681.82, 13495.33, 3513.45, -1510.17, -19377.33, -4964.90, -3181.77, -31542.15, 0.00, 0.00, 0.00
181, 8678.94, 13495.33, 3509.96, -1512.86, -19383.41, -4961.95, -3184.77, -31532.05, 0.00, 0.00, 0.00
182, 8692.88, 13514.22, 3531.17, -1489.92, -19355.98, -4934.46, -3157.21, -31499.44, 0.00, 0.00, 0.00
183, 8705.65, 13524.12, 3539.73, -1479.42, -19347.47, -4926.46, -3149.18, -31498.77, 0.00, 0.00, 0.00
184, 8700.10, 13510.60, 3524.56, -1496.18, -19366.22, -4946.26, -3168.36, -31523.02, 0.00, 0.00, 0.00
185, 8683.72, 13496.30, 3510.52, -1511.22, -19379.92, -4957.77, -3183.74, -31527.78, 0.00, 0.00, 0.00
186, 8697.80, 13518.47, 3533.74, -1491.08, -19357.35, -4935.73, -3161.94, -31499.60, -0.01, 0.96, 0.21
187, 8710.45, 13533.00, 3551.31, -1476.38, -19342.57, -4920.54, -3147.53, -31489.07, 0.00, 0.00, 0.00
188, 8691.36, 13513.28, 3526.05, -1497.75, -19368.37, -4946.24, -3174.01, -31522.44, 0.00, 0.00, 0.00
189, 8684.26, 13505.86, 3511.64, -1508.32, -19382.76, -4956.01, -3184.68, -31527.16, 0.00, 0.00, 0.00
190, 8697.44, 13522.85, 3527.40, -1488.13, -19363.03, -4929.77, -3157.72, -31491.73, 0.00, 0.00, 0.00
191, 8712.96, 13537.80, 3548.29, -1467.82, -19319.77, -4909.16, -3133.54, -31473.85, 0.00, 0.00, 0.00
192, 8694.11, 13516.70, 3525.50, -1490.86, -19350.71, -4935.53, -3157.79, -31507.24, 0.00, 0.00, 0.00
193, 8684.61, 13507.99, 3510.43, -1506.60, -19373.13, -4948.48, -3169.57, -31514.77, 0.00, 0.00, 0.00
194, 8690.16, 13516.28, 3520.49, -1499.94, -19361.77, -4935.69, -3158.73, -31494.41, 0.00, 0.00, 0.00
195, 8707.61, 13531.70, 3541.10, -1484.09, -19339.13, -4917.72, -3139.77, -31478.47, 0.00, 0.00, 0.00
196, 8697.64, 13521.71, 3530.84, -1495.31, -19349.77, -4932.40, -3151.75, -31502.82, -0.01, 0.96, 0.22
197, 8682.07, 13506.53, 3513.22, -1512.90, -19369.51, -4952.97, -3171.58, -31519.89, 0.00, 0.00, 0.00
198, 8676.75, 13500.74, 3507.86, -1517.91, -19374.00, -4956.21, -3176.94, -31513.70, 0.00, 0.00, 0.00
199, 8698.25, 13522.13, 3533.32, -1497.86, -19345.97, -4933.19, -3150.23, -31488.55, 0.00, 0.00, 0.00
200, 8708.95, 13531.50, 3540.81, -1492.11, -19337.66, -4927.67, -3142.86, -31491.24, 0.00, 0.00, 0.00
201, 8698.99, 13519.88, 3524.45, -1506.66, -19350.96, -4939.87, -3154.75, -31504.71, 0.00, 0.00, 0.00
202, 8680.70, 13505.84, 3511.35, -1518.40, -19362.67, -4947.80, -3164.69, -31503.96, 0.00, 0.00, 0.00
203, 8689.62, 13516.08, 3530.52, -1504.18, -19347.00, -4930.57, -3147.28, -31483.50, 0.00, 0.00, 0.00
204, 8692.33, 13516.28, 3532.72, -1503.45, -19354.22, -4932.00, -3148.11, -31493.83, 0.00, 0.00, 0.00
205, 8685.40, 13505.59, 3519.97, -1519.07, -19356.30, -4952.88, -3166.82, -31516.47, 0.00, 0.00, 0.00
206, 8679.20, 13500.14, 3515.86, -1526.27, -19368.43, -4958.89, -3177.90, -31516.88, -0.01, 0.96, 0.22
207, 8692.24, 13514.94, 3535.44, -1511.29, -19361.88, -4940.34, -3160.96, -31492.87, 0.00, 0.00, 0.00
208, 8702.85, 13522.83, 3546.10, -1504.47, -19354.93, -4934.13, -3153.56, -31494.59, 0.00, 0.00, 0.00
209, 8705.02, 13519.47, 3537.14, -1512.92, -19364.52, -4945.70, -3165.05, -31511.85, 0.00, 0.00, 0.00
210, 8696.95, 13512.84, 3526.84, -1518.60, -19369.42, -4949.70, -3173.75, -31509.88, 0.00, 0.00, 0.00
211, 8696.48, 13520.73, 3534.55, -1507.65, -19361.08, -4934.97, -3159.24, -31487.68, 0.00, 0.00, 0.00
212, 8698.38, 13521.11, 3537.95, -1502.28, -19349.12, -4927.55, -3150.61, -31489.83, 0.00, 0.00, 0.00
213, 8689.26, 13512.57, 3526.66, -1512.97, -19344.25, -4941.30, -3164.60, -31509.30, 0.00, 0.00, 0.00
214, 8680.52, 13509.86, 3519.04, -1519.49, -19362.33, -4944.74, -3170.80, -31506.10, 0.00, 0.00, 0.00
215, 8684.46, 13516.43, 3526.59, -1512.63, -19360.50, -4938.37, -3163.04, -31490.95, 0.00, 0.00, 0.00
216, 8692.24, 13524.68, 3545.72, -1501.34, -19346.75, -4926.37, -3148.89, -31482.83, -0.01, 0.96, 0.21
217, 8683.45, 13509.91, 3530.19, -1522.42, -19362.18, -4946.04, -3164.72, -31508.61, 0.00, 0.00, 0.00
218, 8682.22, 13504.81, 3522.28, -1531.59, -19369.08, -4952.19, -3171.65, -31511.42, 0.00, 0.00, 0.00
219, 8681.60, 13508.37, 3524.98, -1530.67, -19366.06, -4943.00, -3168.61, -31496.38, 0.00, 0.00, 0.00
220, 8694.09, 13524.06, 3542.89, -1515.94, -19343.71, -4923.44, -3147.39, -31478.05, 0.00, 0.00, 0.00
221, 8692.26, 13519.41, 3537.54, -1523.00, -19347.56, -4931.58, -3150.66, -31493.38, 0.00, 0.00, 0.00
222, 8673.04, 13500.25, 3512.00, -1544.84, -19372.75, -4958.96, -3176.83, -31518.51, 0.00, 0.00, 0.00
223, 8679.76, 13508.39, 3516.26, -1539.25, -19366.31, -4949.64, -3170.01, -31498.46, 0.00, 0.00, 0.00
224, 8705.18, 13534.54, 3546.01, -1509.73, -19334.82, -4919.31, -3140.17, -31469.27, 0.00, 0.00, 0.00
225, 8703.90, 13530.43, 3544.67, -1514.64, -19341.99, -4925.18, -3144.15, -31487.28, 0.00, 0.00, 0.00
226, 8687.63, 13512.32, 3520.24, -1539.68, -19368.84, -4949.95, -3168.69, -31512.74, -0.01, 0.96, 0.21
227, 8679.90, 13509.13, 3514.05, -1546.81, -19362.18, -4955.40, -3179.27, -31510.37, 0.00, 0.00, 0.00
228, 8695.28, 13525.26, 3541.48, -1525.89, -19349.26, -4931.11, -3157.76, -31484.24, 0.00, 0.00, 0.00
229, 8694.09, 13522.60, 3541.54, -1528.81, -19357.53, -4933.57, -3157.76, -31495.44, 0.00, 0.00, 0.00
230, 8681.48, 13502.51, 3518.16, -1556.33, -19389.89, -4968.03, -3187.18, -31530.91, 0.00, 0.00, 0.00
231, 8674.51, 13498.80, 3509.83, -1560.35, -19394.16, -4974.18, -3192.83, -31528.52, 0.00, 0.00, 0.00
232, 8690.94, 13519.97, 3534.55, -1534.58, -19366.27, -4942.91, -3167.73, -31493.85, 0.00, 0.00, 0.00
233, 8701.44, 13530.29, 3542.55, -1526.62, -19353.71, -4930.15, -3155.66, -31489.61, 0.00, 0.00, 0.00
234, 8707.35, 13529.31, 3534.28, -1532.01, -19356.28, -4939.20, -3159.11, -31499.64, 0.00, 0.00, 0.00
235, 8687.47, 13505.06, 3505.47, -1557.67, -19377.82, -4960.95, -3180.92, -31515.42, 0.00, 0.00, 0.00
236, 8697.49, 13521.26, 3520.27, -1544.66, -19361.24, -4943.07, -3165.77, -31494.41, -0.01, 0.96, 0.21
237, 8706.81, 13533.24, 3536.05, -1531.59, -19349.93, -4927.75, -3148.67, -31482.79, 0.00, 0.00, 0.00
238, 8689.89, 13513.73, 3511.97, -1554.16, -19374.04, -4951.40, -3171.62, -31515.38, 0.00, 0.00, 0.00
239, 8669.75, 13492.76, 3493.40, -1576.71, -19379.63, -4975.03, -3194.65, -31532.59, 0.00, 0.00, 0.00
240, 8686.13, 13517.28, 3522.81, -1551.41, -19362.96, -4945.68, -3168.69, -31494.81, 0.00, 0.00, 0.00
241, 8698.78, 13531.28, 3542.53, -1533.98, -19348.21, -4926.46, -3147.80, -31479.66, 0.00, 0.00, 0.00
242, 8696.15, 13519.09, 3531.64, -1548.39, -19361.91, -4943.47, -3161.56, -31503.89, 0.00, 0.00, 0.00
243, 8678.82, 13498.13, 3509.76, -1573.23, -19384.48, -4965.10, -3186.04, -31521.88, 0.00, 0.00, 0.00
244, 8672.79, 13496.41, 3509.89, -1570.81, -19381.33, -4958.40, -3182.26, -31508.18, 0.00, 0.00, 0.00
245, 8683.83, 13507.96, 3523.37, -1560.00, -19364.48, -4947.47, -3167.47, -31496.89, 0.00, 0.00, 0.00
246, 8686.96, 13510.47, 3520.69, -1565.45, -19366.00, -4954.08, -3171.44, -31511.40, -0.01, 0.96, 0.20
247, 8665.68, 13486.06, 3492.86, -1596.05, -19398.14, -4983.48, -3202.24, -31541.60, 0.00, 0.00, 0.00
248, 8670.96, 13489.34, 3498.52, -1594.57, -19394.68, -4978.94, -3198.65, -31526.73, 0.00, 0.00, 0.00
249, 8702.18, 13517.11, 3530.86, -1561.76, -19360.70, -4945.81, -3166.33, -31492.76, 0.00, 0.00, 0.00
250, 8707.93, 13528.97, 3544.54, -1542.54, -19343.62, -4932.16, -3151.73, -31488.47, 0.00, 0.00, 0.00
251, 8687.09, 13509.62, 3525.65, -1556.93, -19361.26, -4948.23, -3170.13, -31507.40, 0.00, 0.00, 0.00
252, 8681.39, 13501.66, 3515.50, -1570.39, -19374.29, -4958.40, -3182.24, -31509.32, 0.00, 0.00, 0.00
253, 8703.72, 13526.83, 3536.25, -1552.93, -19350.44, -4937.66, -3163.15, -31485.76, 0.00, 0.00, 0.00
254, 8706.03, 13528.53, 3535.55, -1551.57, -19346.95, -4937.19, -3159.28, -31493.81, 0.00, 0.00, 0.00
255, 8687.92, 13507.74, 3507.41, -1575.84, -19376.14, -4962.33, -3180.79, -31520.65, 0.00, 0.00, 0.00
0, 8691.43, 13509.24, 3507.55, -1572.96, -19356.07, -4956.03, -3178.98, -31508.38, -0.01, 0.97, 0.21
1, 8699.57, 13518.67, 3523.57, -1556.87, -19336.09, -4934.97, -3163.51, -31484.96, 0.00, 0.00, 0.00
2, 8711.03, 13532.28, 3537.05, -1541.96, -19329.92, -4920.67, -3147.84, -31476.89, 0.00, 0.00, 0.00
3, 8699.32, 13513.57, 3515.30, -1562.34, -19348.56, -4938.37, -3166.21, -31503.58, 0.00, 0.00, 0.00
4, 8673.57, 13483.71, 3484.59, -1592.03, -19371.07, -4963.92, -3192.97, -31523.45, 0.00, 0.00, 0.00
5, 8684.19, 13497.37, 3498.96, -1580.89, -19355.16, -4946.49, -3178.28, -31500.07, 0.00, 0.00, 0.00
6, 8696.08, 13508.50, 3515.50, -1572.69, -19335.73, -4935.11, -3164.43, -31496.87, 0.00, 0.00, 0.00
7, 8689.98, 13496.54, 3499.77, -1587.55, -19348.70, -4955.87, -3178.62, -31521.75, 0.00, 0.00, 0.00
8, 8683.83, 13489.90, 3489.04, -1602.37, -19362.73, -4967.14, -3190.13, -31526.31, 0.00, 0.00, 0.00
9, 8690.80, 13503.20, 3500.69, -1592.61, -19349.37, -4955.20, -3180.54, -31509.21, 0.00, 0.00, 0.00
10, 8712.58, 13520.10, 3523.13, -1573.07, -19322.88, -4932.85, -3155.60, -31491.21, -0.01, 0.97, 0.21
11, 8712.06, 13514.45, 3515.12, -1581.56, -19329.41, -4942.46, -3161.99, -31510.55, 0.00, 0.00, 0.00
12, 8691.68, 13489.50, 3487.18, -1606.58, -19357.04, -4967.00, -3185.62, -31533.66, 0.00, 0.00, 0.00
13, 8688.39, 13487.53, 3482.63, -1603.80, -19361.13, -4959.49, -3183.29, -31518.62, 0.00, 0.00, 0.00
14, 8702.92, 13504.59, 3502.76, -1581.25, -19318.50, -4932.27, -3159.51, -31495.71, 0.00, 0.00, 0.00
15, 8711.37, 13511.36, 3506.05, -1579.73, -19316.87, -4931.85, -3159.22, -31505.32, 0.00, 0.00, 0.00
16, 8696.93, 13495.07, 3479.81, -1604.50, -19351.22, -4955.14, -3180.41, -31525.99, 0.00, 0.00, 0.00
17, 8701.89, 13501.73, 3479.83, -1603.56, -19350.75, -4946.28, -3178.31, -31511.44, 0.00, 0.00, 0.00
18, 8716.38, 13518.40, 3498.25, -1587.73, -19332.89, -4928.20, -3161.59, -31492.91, 0.00, 0.00, 0.00
19, 8732.40, 13531.05, 3511.75, -1577.52, -19320.56, -4922.88, -3151.48, -31493.23, -0.01, 0.97, 0.22
20, 8715.46, 13514.54, 3488.17, -1596.03, -19344.79, -4945.23, -3176.16, -31518.91, 0.00, 0.00, 0.00
21, 8689.55, 13492.29, 3461.37, -1619.99, -19366.53, -4965.53, -3196.32, -31529.73, 0.00, 0.00, 0.00
22, 8724.56, 13526.63, 3499.03, -1583.35, -19325.63, -4927.60, -3157.72, -31486.25, 0.00, 0.00, 0.00
23, 8737.25, 13534.18, 3510.83, -1573.79, -19314.72, -4920.11, -3146.54, -31487.64, 0.00, 0.00, 0.00
24, 8723.73, 13520.19, 3494.96, -1588.00, -19327.93, -4933.95, -3160.47, -31506.59, 0.00, 0.00, 0.00
25, 8701.74, 13497.86, 3476.79, -1606.44, -19345.21, -4947.20, -3176.90, -31511.51, 0.00, 0.00, 0.00
26, 8705.74, 13502.00, 3487.74, -1599.54, -19334.13, -4932.45, -3161.03, -31488.69, 0.00, 0.00, 0.00
27, 8721.29, 13514.67, 3496.75, -1592.03, -19324.67, -4920.60, -3146.34, -31482.01, 0.00, 0.00, 0.00
28, 8709.16, 13498.24, 3474.20, -1619.05, -19332.54, -4942.02, -3171.56, -31514.10, 0.00, 0.00, 0.00
29, 8690.09, 13481.97, 3453.97, -1642.34, -19367.27, -4963.20, -3194.71, -31529.57, -0.01, 0.96, 0.22
30, 8708.60, 13505.15, 3478.20, -1621.73, -19345.12, -4938.80, -3166.86, -31491.06, 0.00, 0.00, 0.00
31, 8727.60, 13522.72, 3500.31, -1603.76, -19320.69, -4918.66, -3145.31, -31475.75, 0.00, 0.00, 0.00
32, 8719.77, 13513.24, 3488.44, -1621.08, -19330.73, -4934.06, -3156.78, -31496.98, 0.00, 0.00, 0.00
33, 8696.66, 13488.85, 3460.09, -1650.43, -19359.38, -4963.99, -3184.79, -31521.41, 0.00, 0.00, 0.00
34, 8696.19, 13492.76, 3468.45, -1644.66, -19353.21, -4957.10, -3178.37, -31504.36, 0.00, 0.00, 0.00
35, 8711.55, 13507.52, 3490.81, -1624.21, -19328.58, -4935.09, -3154.43, -31483.01, 0.00, 0.00, 0.00
36, 8710.16, 13499.02, 3483.27, -1633.38, -19336.29, -4945.95, -3161.34, -31502.86, 0.00, 0.00, 0.00
37, 8698.20, 13488.23, 3468.79, -1648.73, -19348.94, -4962.36, -3175.74, -31514.71, 0.00, 0.00, 0.00
38, 8700.17, 13496.85, 3477.91, -1637.18, -19339.24, -4946.91, -3165.41, -31490.41, 0.00, 0.00, 0.00
39, 8711.59, 13508.25, 3497.56, -1617.84, -19321.34, -4927.69, -3148.58, -31472.69, -0.00, 0.96, 0.21
40, 8704.98, 13501.26, 3486.34, -1626.63, -19332.49, -4941.14, -3159.26, -31496.00, 0.00, 0.00, 0.00
41, 8696.53, 13487.18, 3465.77, -1644.10, -19353.21, -4960.54, -3178.44, -31513.77, 0.00, 0.00, 0.00
42, 8695.03, 13485.95, 3465.01, -1642.34, -19353.12, -4953.35, -3173.50, -31499.11, 0.00, 0.00, 0.00
43, 8706.29, 13503.52, 3482.54, -1626.80, -19335.87, -4930.03, -3153.85, -31477.71, 0.00, 0.00, 0.00
44, 8712.40, 13508.23, 3488.86, -1625.84, -19316.53, -4929.72, -3155.15, -31487.75, 0.00, 0.00, 0.00
45, 8697.73, 13491.20, 3468.83, -1648.28, -19348.21, -4954.44, -3177.46, -31514.21, 0.00, 0.00, 0.00
46, 8690.87, 13484.76, 3457.66, -1656.69, -19363.99, -4961.60, -3187.22, -31513.63, 0.00, 0.00, 0.00
47, 8705.31, 13501.35, 3481.13, -1636.86, -19342.77, -4937.19, -3166.35, -31485.96, 0.00, 0.00, 0.00
48, 8714.34, 13512.34, 3494.27, -1624.73, -19328.13, -4925.65, -3151.31, -31481.67, 0.00, 0.00, 0.00
49, 8701.02, 13493.17, 3470.15, -1645.18, -19351.11, -4950.04, -3173.52, -31511.13, -0.01, 0.96, 0.22
50, 8696.66, 13489.59, 3462.55, -1651.97, -19359.90, -4955.54, -3185.35, -31510.04, 0.00, 0.00, 0.00
51, 8705.87, 13503.98, 3482.13, -1633.51, -19337.16, -4932.16, -3163.26, -31480.78, 0.00, 0.00, 0.00
52, 8707.55, 13507.09, 3486.45, -1630.54, -19331.93, -4926.99, -3157.70, -31483.88, 0.00, 0.00, 0.00
53, 8694.29, 13486.71, 3467.90, -1653.18, -19351.74, -4950.22, -3175.38, -31511.47, 0.00, 0.00, 0.00
54, 8699.03, 13483.56, 3459.78, -1665.90, -19360.05, -4959.92, -3186.40, -31515.24, 0.00, 0.00, 0.00
55, 8711.06, 13502.82, 3472.57, -1652.06, -19347.04, -4944.09, -3173.43, -31493.43, 0.00, 0.00, 0.00
56, 8706.85, 13511.36, 3498.92, -1623.47, -19315.95, -4914.81, -3140.98, -31468.17, 0.00, 0.00, 0.00
57, 8685.46, 13486.44, 3480.64, -1639.46, -19332.38, -4930.28, -3156.56, -31491.24, 0.00, 0.00, 0.00
58, 8669.37, 13468.09, 3458.24, -1658.86, -19355.74, -4953.41, -3181.10, -31510.62, 0.00, 0.00, 0.00
59, 8660.85, 13469.63, 3468.52, -1650.23, -19351.16, -4942.53, -3173.52, -31490.75, -0.01, 0.96, 0.22
60, 8673.15, 13487.15, 3493.22, -1623.88, -19326.44, -4913.72, -3143.86, -31464.97, 0.00, 0.00, 0.00
61, 8659.78, 13471.06, 3480.61, -1639.30, -19322.10, -4927.08, -3157.05, -31488.29, 0.00, 0.00, 0.00
62, 8646.57, 13457.98, 3467.56, -1658.19, -19344.32, -4946.06, -3174.31, -31503.29, 0.00, 0.00, 0.00
63, 8642.66, 13461.05, 3471.54, -1654.72, -19349.10, -4940.50, -3172.32, -31489.70, 0.00, 0.00, 0.00
64, 8666.20, 13486.71, 3504.13, -1629.84, -19319.60, -4914.63, -3145.20, -31463.88, 0.00, 0.00, 0.00
65, 8667.76, 13480.29, 3497.89, -1636.75, -19326.57, -4925.68, -3152.58, -31483.24, 0.00, 0.00, 0.00
66, 8645.74, 13454.50, 3464.83, -1670.59, -19360.83, -4959.94, -3184.21, -31516.49, 0.00, 0.00, 0.00
67, 8643.04, 13454.27, 3463.29, -1672.45, -19362.80, -4962.24, -3187.29, -31507.60, 0.00, 0.00, 0.00
68, 8662.24, 13476.38, 3488.68, -1646.52, -19331.29, -4936.25, -3161.92, -31478.74, 0.00, 0.00, 0.00
69, 8671.25, 13485.46, 3492.71, -1637.96, -19326.57, -4929.63, -3158.01, -31482.34, -0.01, 0.96, 0.22
70, 8655.51, 13465.85, 3465.59, -1659.26, -19351.94, -4952.41, -3181.82, -31513.32, 0.00, 0.00, 0.00
71, 8636.20, 13449.47, 3443.84, -1674.93, -19370.56, -4966.69, -3200.01, -31522.15, 0.00, 0.00, 0.00
72, 8656.29, 13473.65, 3468.45, -1649.45, -19343.04, -4937.95, -3174.98, -31489.05, 0.00, 0.00, 0.00
73, 8667.36, 13481.41, 3477.71, -1642.38, -19333.30, -4930.10, -3163.06, -31486.97, 0.00, 0.00, 0.00
74, 8651.11, 13461.90, 3453.14, -1667.55, -19359.29, -4954.49, -3184.52, -31513.52, 0.00, 0.00, 0.00
75, 8650.15, 13463.42, 3452.72, -1671.04, -19341.95, -4957.19, -3189.42, -31508.61, 0.00, 0.00, 0.00
76, 8663.42, 13476.89, 3473.15, -1657.76, -19333.36, -4938.82, -3170.39, -31485.20, 0.00, 0.00, 0.00
77, 8672.88, 13485.95, 3487.41, -1648.53, -19330.66, -4926.93, -3157.59, -31477.71, 0.00, 0.00, 0.00
78, 8661.77, 13473.83, 3469.55, -1670.03, -19351.63, -4947.20, -3178.89, -31504.76, 0.00, 0.00, 0.00
79, 8648.74, 13460.94, 3452.09, -1688.00, -19364.75, -4963.20, -3193.46, -31515.42, -0.02, 0.96, 0.21
80, 8666.53, 13481.70, 3476.10, -1664.44, -19341.57, -4935.73, -3171.29, -31482.36, 0.00, 0.00, 0.00
81, 8677.33, 13493.01, 3489.87, -1648.20, -19327.26, -4920.83, -3159.71, -31475.90, 0.00, 0.00, 0.00
82, 8667.65, 13481.25, 3476.79, -1659.46, -19339.98, -4936.07, -3174.55, -31503.08, 0.00, 0.00, 0.00
83, 8654.46, 13463.84, 3460.52, -1677.48, -19360.86, -4955.29, -3195.16, -31520.67, 0.00, 0.00, 0.00
84, 8667.65, 13478.06, 3475.09, -1661.94, -19343.51, -4935.96, -3177.46, -31493.65, 0.00, 0.00, 0.00
85, 8678.60, 13491.76, 3493.18, -1644.91, -19324.85, -4919.02, -3156.69, -31478.86, 0.00, 0.00, 0.00
86, 8673.55, 13486.39, 3484.86, -1653.72, -19332.38, -4927.93, -3166.21, -31497.18, 0.00, 0.00, 0.00
87, 8658.15, 13467.04, 3462.96, -1672.94, -19349.84, -4945.70, -3180.45, -31511.40, 0.00, 0.00, 0.00
88, 8645.68, 13457.63, 3453.08, -1679.98, -19358.51, -4948.88, -3187.22, -31507.31, 0.00, 0.00, 0.00
89, 8666.89, 13483.47, 3483.59, -1653.27, -19326.35, -4921.14, -3158.23, -31476.49, -0.01, 0.97, 0.22
90, 8673.68, 13487.85, 3484.17, -1654.32, -19329.36, -4925.68, -3159.80, -31489.56, 0.00, 0.00, 0.00
91, 8651.56, 13464.44, 3449.12, -1687.85, -19366.91, -4958.71, -3190.80, -31523.04, 0.00, 0.00, 0.00
92, 8645.77, 13461.70, 3444.54, -1691.40, -19351.78, -4956.61, -3193.57, -31513.54, 0.00, 0.00, 0.00
93, 8670.17, 13488.36, 3480.17, -1661.18, -19322.28, -4921.83, -3158.17, -31473.96, 0.00, 0.00, 0.00
94, 8672.63, 13486.33, 3481.80, -1659.37, -19330.62, -4922.79, -3157.54, -31482.45, 0.00, 0.00, 0.00
95, 8654.64, 13462.83, 3453.59, -1687.98, -19360.16, -4952.16, -3186.55, -31514.19, 0.00, 0.00, 0.00
96, 8653.34, 13464.06, 3452.76, -1689.17, -19360.95, -4949.59, -3185.15, -31502.03, 0.00, 0.00, 0.00
97, 8671.65, 13483.64, 3478.47, -1665.70, -19336.85, -4922.39, -3160.67, -31469.42, 0.00, 0.00, 0.00
98, 8673.35, 13486.66, 3480.05, -1663.66, -19332.02, -4919.93, -3155.35, -31473.60, -0.01, 0.97, 0.21
99, 8662.89, 13474.39, 3460.34, -1683.69, -19349.61, -4942.46, -3171.20, -31498.44, 0.00, 0.00, 0.00
100, 8661.03, 13472.92, 3453.46, -1691.54, -19357.50, -4946.49, -3178.44, -31497.56, 0.00, 0.00, 0.00
101, 8664.79, 13483.94, 3467.49, -1677.83, -19344.03, -4927.93, -3163.26, -31472.53, 0.00, 0.00, 0.00
102, 8675.92, 13499.36, 3487.23, -1658.77, -19321.16, -4909.67, -3141.34, -31458.27, 0.00, 0.00, 0.00
103, 8673.10, 13491.89, 3476.72, -1668.96, -19333.56, -4921.72, -3153.63, -31480.17, 0.00, 0.00, 0.00
104, 8653.08, 13466.17, 3448.40, -1697.32, -19364.25, -4951.34, -3185.26, -31507.04, 0.00, 0.00, 0.00
105, 8658.78, 13477.41, 3459.13, -1684.38, -19353.86, -4935.71, -3170.10, -31481.58, 0.00, 0.00, 0.00
106, 8673.44, 13493.75, 3479.03, -1664.58, -19334.68, -4911.71, -3144.09, -31458.89, 0.00, 0.00, 0.00
107, 8665.73, 13484.38, 3469.04, -1678.50, -19327.57, -4926.48, -3158.01, -31484.00, 0.00, 0.00, 0.00
108, 8637.81, 13457.40, 3442.79, -1707.79, -19359.85, -4956.30, -3186.62, -31511.38, -0.01, 0.97, 0.21
109, 8648.43, 13471.24, 3458.91, -1695.80, -19353.08, -4943.11, -3170.95, -31485.87, 0.00, 0.00, 0.00
110, 8679.70, 13503.14, 3496.64, -1662.50, -19315.30, -4909.65, -3135.37, -31453.53, 0.00, 0.00, 0.00
111, 8668.25, 13494.06, 3480.93, -1677.79, -19331.60, -4926.84, -3150.90, -31481.20, 0.00, 0.00, 0.00
112, 8654.71, 13474.84, 3457.50, -1702.58, -19352.86, -4949.03, -3171.24, -31501.01, 0.00, 0.00, 0.00
113, 8643.91, 13462.28, 3448.23, -1711.07, -19360.52, -4954.38, -3177.99, -31497.85, 0.00, 0.00, 0.00
114, 8660.05, 13481.52, 3473.48, -1690.66, -19334.08, -4930.17, -3151.91, -31473.51, 0.00, 0.00, 0.00
115, 8665.97, 13483.53, 3477.62, -1689.43, -19331.04, -4929.92, -3149.18, -31481.02, 0.00, 0.00, 0.00
116, 8655.13, 13472.04, 3460.68, -1705.57, -19348.81, -4950.22, -3166.88, -31498.46, 0.00, 0.00, 0.00
117, 8649.54, 13472.33, 3454.93, -1707.70, -19356.36, -4950.11, -3169.68, -31489.63, 0.00, 0.00, 0.00
118, 8664.18, 13489.63, 3475.09, -1687.47, -19338.35, -4924.76, -3144.60, -31461.49, -0.01, 0.97, 0.21
119, 8668.88, 13493.99, 3477.93, -1683.40, -19318.41, -4922.28, -3141.60, -31471.19, 0.00, 0.00, 0.00
120, 8647.26, 13470.90, 3452.70, -1708.95, -19356.59, -4950.29, -3169.79, -31503.75, 0.00, 0.00, 0.00
121, 8640.00, 13464.78, 3447.71, -1714.29, -19368.03, -4952.19, -3176.14, -31497.00, 0.00, 0.00, 0.00
122, 8653.37, 13481.39, 3469.44, -1695.29, -19344.21, -4929.99, -3154.37, -31467.92, 0.00, 0.00, 0.00
123, 8656.70, 13486.28, 3476.05, -1693.70, -19339.00, -4927.60, -3149.96, -31475.48, 0.00, 0.00, 0.00
124, 8649.37, 13476.80, 3463.22, -1710.74, -19350.71, -4946.98, -3164.92, -31498.68, 0.00, 0.00, 0.00
125, 8644.51, 13476.96, 3458.62, -1715.21, -19351.74, -4946.66, -3168.36, -31491.10, 0.00, 0.00, 0.00
126, 8644.29, 13477.27, 3461.35, -1715.30, -19349.44, -4942.62, -3163.49, -31479.17, 0.00, 0.00, 0.00
127, 8673.28, 13499.65, 3491.92, -1690.04, -19323.71, -4916.91, -3137.18, -31457.20, 0.00, 0.00, 0.00
128, 8667.98, 13492.90, 3482.22, -1696.92, -19333.56, -4926.26, -3147.93, -31476.31, -0.01, 0.97, 0.21
129, 8642.77, 13470.52, 3455.04, -1719.59, -19361.57, -4951.63, -3178.15, -31498.64, 0.00, 0.00, 0.00
130, 8654.68, 13489.17, 3471.18, -1699.09, -19344.29, -4930.59, -3162.39, -31470.72, 0.00, 0.00, 0.00
131, 8671.34, 13507.58, 3493.98, -1675.87, -19319.08, -4907.86, -3135.21, -31450.71, 0.00, 0.00, 0.00
132, 8659.54, 13492.63, 3476.12, -1691.71, -19340.47, -4927.84, -3148.27, -31477.92, 0.00, 0.00, 0.00
133, 8644.00, 13474.99, 3453.14, -1715.34, -19357.50, -4951.60, -3172.85, -31498.14, 0.00, 0.00, 0.00
134, 8652.09, 13484.54, 3464.79, -1707.43, -19338.75, -4942.37, -3167.02, -31477.71, 0.00, 0.00, 0.00
135, 8674.42, 13508.63, 3495.10, -1683.73, -19324.58, -4915.13, -3140.91, -31451.29, 0.00, 0.00, 0.00
136, 8680.41, 13510.67, 3495.43, -1686.24, -19325.79, -4914.32, -3139.91, -31461.71, 0.00, 0.00, 0.00
137, 8647.84, 13475.93, 3453.95, -1726.94, -19367.43, -4955.56, -3179.83, -31502.53, 0.00, 0.00, 0.00
138, 8636.24, 13469.45, 3447.44, -1734.92, -19373.24, -4961.22, -3187.40, -31497.05, -0.01, 0.97, 0.21
139, 8660.38, 13497.97, 3484.99, -1698.11, -19332.78, -4921.79, -3149.74, -31456.93, 0.00, 0.00, 0.00
140, 8651.96, 13487.89, 3479.88, -1700.39, -19338.82, -4929.10, -3154.32, -31475.59, 0.00, 0.00, 0.00
141, 8646.62, 13476.94, 3464.21, -1715.72, -19354.69, -4948.03, -3169.37, -31494.59, 0.00, 0.00, 0.00
142, 8645.61, 13478.88, 3462.37, -1715.99, -19362.42, -4949.12, -3169.16, -31487.13, 0.00, 0.00, 0.00
143, 8655.76, 13491.27, 3480.37, -1700.70, -19337.48, -4931.11, -3149.29, -31462.67, 0.00, 0.00, 0.00
144, 8660.76, 13497.55, 3491.43, -1694.28, -19314.39, -4926.61, -3143.42, -31467.28, 0.00, 0.00, 0.00
145, 8652.29, 13487.62, 3479.63, -1709.64, -19341.01, -4941.61, -3157.16, -31486.88, 0.00, 0.00, 0.00
146, 8639.37, 13470.48, 3462.55, -1724.66, -19363.34, -4953.01, -3175.60, -31492.96, 0.00, 0.00, 0.00
147, 8664.09, 13498.75, 3494.90, -1692.97, -19330.44, -4919.62, -3145.25, -31452.79, 0.00, 0.00, 0.00
148, 8672.72, 13508.46, 3504.89, -1683.73, -19317.65, -4908.29, -3134.07, -31450.04, -0.01, 0.97, 0.22
149, 8648.11, 13480.92, 3473.59, -1715.09, -19352.30, -4940.05, -3168.27, -31488.51, 0.00, 0.00, 0.00
150, 8636.38, 13468.20, 3460.03, -1731.43, -19365.46, -4954.53, -3184.99, -31495.33, 0.00, 0.00, 0.00
151, 8648.69, 13484.70, 3480.52, -1715.12, -19340.49, -4931.89, -3161.94, -31465.24, 0.00, 0.00, 0.00
152, 8667.34, 13502.53, 3504.51, -1694.71, -19318.25, -4911.15, -3140.78, -31450.13, 0.00, 0.00, 0.00
153, 8655.33, 13482.91, 3482.16, -1714.80, -19348.47, -4935.94, -3162.68, -31482.19, 0.00, 0.00, 0.00
154, 8641.21, 13471.11, 3464.23, -1734.23, -19357.44, -4954.08, -3180.99, -31494.70, 0.00, 0.00, 0.00
155, 8649.68, 13488.54, 3485.08, -1714.96, -19332.04, -4932.34, -3162.79, -31465.91, 0.00, 0.00, 0.00
156, 8666.53, 13505.50, 3506.14, -1690.19, -19319.17, -4906.52, -3135.77, -31443.67, 0.00, 0.00, 0.00
157, 8660.94, 13494.57, 3490.56, -1700.45, -19338.19, -4922.99, -3150.46, -31467.72, 0.00, 0.00, 0.00
158, 8646.10, 13479.69, 3470.98, -1720.82, -19354.13, -4943.51, -3167.29, -31484.04, -0.01, 0.96, 0.21
159, 8650.06, 13488.45, 3480.01, -1714.74, -19343.36, -4931.06, -3158.12, -31464.06, 0.00, 0.00, 0.00
160, 8663.27, 13502.15, 3500.28, -1698.31, -19322.68, -4912.00, -3139.46, -31446.80, 0.00, 0.00, 0.00
161, 8661.99, 13496.97, 3493.42, -1705.77, -19326.86, -4917.29, -3140.22, -31459.41, 0.00, 0.00, 0.00
162, 8648.25, 13483.94, 3475.79, -1724.57, -19345.46, -4936.56, -3158.23, -31475.03, 0.00, 0.00, 0.00
163, 8647.20, 13489.59, 3481.80, -1719.83, -19335.89, -4927.69, -3152.02, -31455.77, 0.00, 0.00, 0.00
164, 8669.55, 13510.91, 3507.61, -1695.29, -19309.80, -4901.33, -3126.07, -31429.72, 0.00, 0.00, 0.00
165, 8667.07, 13503.98, 3499.90, -1703.05, -19324.76, -4911.10, -3136.04, -31451.45, 0.00, 0.00, 0.00
166, 8652.45, 13489.28, 3477.46, -1726.87, -19334.50, -4939.33, -3162.35, -31482.52, 0.00, 0.00, 0.00
167, 8637.70, 13476.47, 3464.61, -1740.40, -19350.98, -4950.08, -3180.25, -31485.34, 0.00, 0.00, 0.00
168, 8665.28, 13506.13, 3499.66, -1707.96, -19329.63, -4914.30, -3146.14, -31444.79, -0.00, 0.96, 0.20
169, 8682.62, 13522.31, 3514.48, -1694.46, -19316.42, -4900.87, -3131.41, -31442.11, 0.00, 0.00, 0.00
170, 8659.18, 13497.95, 3484.55, -1727.70, -19342.80, -4932.07, -3161.27, -31478.16, 0.00, 0.00, 0.00
171, 8640.16, 13478.33, 3464.27, -1749.11, -19360.72, -4950.06, -3179.78, -31486.92, 0.00, 0.00, 0.00
172, 8650.15, 13493.37, 3482.71, -1732.64, -19339.24, -4929.21, -3160.09, -31459.43, 0.00, 0.00, 0.00
173, 8667.72, 13507.11, 3500.15, -1719.36, -19317.74, -4913.52, -3141.14, -31450.47, 0.00, 0.00, 0.00
174, 8647.53, 13481.66, 3470.44, -1747.08, -19342.19, -4944.14, -3163.82, -31483.55, 0.00, 0.00, 0.00
175, 8633.65, 13467.91, 3450.98, -1763.71, -19362.00, -4961.68, -3182.49, -31494.70, 0.00, 0.00, 0.00
176, 8654.10, 13493.37, 3474.96, -1740.80, -19342.21, -4937.99, -3162.37, -31463.01, 0.00, 0.00, 0.00
177, 8674.02, 13513.93, 3500.75, -1713.73, -19317.18, -4914.05, -3134.18, -31441.68, 0.00, 0.00, 0.00
178, 8667.54, 13507.67, 3486.07, -1727.48, -19330.37, -4932.00, -3146.77, -31466.58, -0.00, 0.96, 0.21
179, 8653.37, 13494.62, 3465.24, -1747.82, -19353.39, -4950.62, -3170.48, -31481.18, 0.00, 0.00, 0.00
180, 8651.91, 13494.51, 3471.76, -1742.85, -19346.15, -4939.67, -3162.97, -31462.65, 0.00, 0.00, 0.00
181, 8674.82, 13519.94, 3499.86, -1720.35, -19318.54, -4915.28, -3137.76, -31439.72, 0.00, 0.00, 0.00
182, 8676.01, 13516.64, 3492.15, -1726.02, -19325.14, -4928.74, -3145.36, -31460.97, 0.00, 0.00, 0.00
183, 8650.62, 13489.68, 3463.47, -1754.25, -19354.31, -4956.21, -3171.35, -31483.50, 0.00, 0.00, 0.00
184, 8656.92, 13497.53, 3473.55, -1748.29, -19348.59, -4946.42, -3163.20, -31464.71, 0.00, 0.00, 0.00
185, 8672.12, 13511.90, 3492.46, -1729.71, -19327.98, -4924.96, -3140.91, -31445.77, 0.00, 0.00, 0.00
186, 8672.50, 13509.71, 3488.06, -1735.50, -19318.16, -4933.72, -3146.59, -31464.57, 0.00, 0.00, 0.00
187, 8658.01, 13490.46, 3468.05, -1755.86, -19350.06, -4956.50, -3167.49, -31485.09, -0.01, 0.96, 0.21
188, 8653.61, 13488.16, 3465.55, -1756.27, -19358.11, -4953.64, -3169.41, -31474.61, 0.00, 0.00, 0.00
189, 8673.64, 13511.58, 3491.36, -1729.47, -19328.00, -4925.63, -3139.95, -31442.11, 0.00, 0.00, 0.00
190, 8671.25, 13508.43, 3490.72, -1731.23, -19332.60, -4928.16, -3141.67, -31454.40, 0.00, 0.00, 0.00
191, 8654.80, 13491.20, 3467.78, -1757.85, -19357.75, -4953.93, -3168.56, -31482.68, 0.00, 0.00, 0.00
192, 8655.74, 13494.44, 3468.50, -1758.05, -19354.24, -4949.88, -3165.79, -31467.97, 0.00, 0.00, 0.00
193, 8665.39, 13506.67, 3485.51, -1741.11, -19338.59, -4931.04, -3149.34, -31446.71, 0.00, 0.00, 0.00
194, 8674.51, 13511.09, 3493.31, -1736.17, -19333.14, -4928.20, -3145.05, -31452.61, 0.00, 0.00, 0.00
195, 8659.76, 13493.12, 3472.14, -1755.82, -19355.29, -4952.16, -3169.99, -31483.59, 0.00, 0.00, 0.00
196, 8648.90, 13485.10, 3459.56, -1765.50, -19369.15, -4963.45, -3183.20, -31487.77, 0.00, 0.00, 0.00
197, 8662.60, 13504.97, 3479.07, -1745.58, -19352.03, -4941.64, -3159.46, -31457.55, -0.00, 0.96, 0.22
198, 8680.43, 13518.07, 3495.43, -1728.68, -19328.07, -4922.55, -3137.67, -31444.08, 0.00, 0.00, 0.00
199, 8670.31, 13506.67, 3480.97, -1745.45, -19327.29, -4939.38, -3152.33, -31465.09, 0.00, 0.00, 0.00
200, 8651.71, 13488.58, 3458.06, -1772.69, -19364.46, -4962.49, -3174.84, -31481.63, 0.00, 0.00, 0.00
201, 8655.67, 13494.42, 3469.39, -1768.89, -19357.37, -4950.40, -3163.44, -31462.96, 0.00, 0.00, 0.00
202, 8665.99, 13502.64, 3485.60, -1755.86, -19339.22, -4938.13, -3146.70, -31454.85, 0.00, 0.00, 0.00
203, 8656.92, 13489.57, 3469.04, -1774.01, -19356.99, -4955.76, -3161.36, -31478.27, 0.00, 0.00, 0.00
204, 8642.88, 13471.31, 3448.94, -1796.72, -19377.69, -4976.35, -3181.64, -31491.80, 0.00, 0.00, 0.00
205, 8651.15, 13483.38, 3460.79, -1783.69, -19364.88, -4964.03, -3173.19, -31470.81, 0.00, 0.00, 0.00
206, 8666.04, 13501.15, 3480.52, -1761.74, -19341.10, -4942.13, -3151.37, -31452.01, 0.00, 0.00, 0.00
207, 8675.34, 13506.22, 3485.37, -1757.23, -19336.56, -4939.71, -3148.29, -31459.61, -0.00, 0.96, 0.21
208, 8667.47, 13492.36, 3469.62, -1769.41, -19349.66, -4953.75, -3163.69, -31473.36, 0.00, 0.00, 0.00
209, 8663.96, 13492.21, 3464.99, -1772.27, -19352.68, -4953.26, -3170.26, -31467.61, 0.00, 0.00, 0.00
210, 8672.10, 13507.00, 3486.96, -1758.12, -19332.56, -4935.91, -3154.68, -31452.35, 0.00, 0.00, 0.00
211, 8673.35, 13509.26, 3490.34, -1757.38, -19328.09, -4933.16, -3147.55, -31458.34, 0.00, 0.00, 0.00
212, 8657.03, 13487.47, 3461.57, -1783.83, -19356.43, -4957.30, -3171.73, -31485.72, 0.00, 0.00, 0.00
213, 8651.49, 13477.61, 3446.84, -1797.04, -19364.63, -4966.24, -3185.32, -31490.05, 0.00, 0.00, 0.00
214, 8676.57, 13504.68, 3481.22, -1767.78, -19313.67, -4933.66, -3154.95, -31454.76, 0.00, 0.00, 0.00
215, 8674.87, 13503.29, 3482.18, -1767.35, -19324.18, -4933.43, -3154.88, -31464.93, 0.00, 0.00, 0.00
216, 8660.54, 13482.04, 3458.11, -1792.30, -19350.22, -4955.25, -3176.21, -31490.43, 0.00, 0.00, 0.00
217, 8660.79, 13481.61, 3452.76, -1794.13, -19351.00, -4952.34, -3177.39, -31481.89, -0.00, 0.97, 0.22
218, 8665.57, 13490.69, 3466.00, -1776.54, -19333.61, -4934.35, -3160.18, -31459.83, 0.00, 0.00, 0.00
219, 8681.89, 13505.73, 3482.89, -1754.61, -19313.16, -4920.87, -3142.70, -31451.85, 0.00, 0.00, 0.00
220, 8673.95, 13492.67, 3461.41, -1770.24, -19331.64, -4944.09, -3165.61, -31481.36, 0.00, 0.00, 0.00
221, 8662.26, 13476.96, 3442.17, -1788.39, -19349.73, -4959.54, -3184.83, -31490.81, 0.00, 0.00, 0.00
222, 8684.55, 13497.28, 3463.25, -1771.02, -19328.49, -4934.01, -3162.08, -31456.50, 0.00, 0.00, 0.00
223, 8703.57, 13513.80, 3481.02, -1759.19, -19309.96, -4917.88, -3141.07, -31447.09, 0.00, 0.00, 0.00
224, 8698.58, 13506.44, 3468.19, -1774.01, -19325.27, -4927.98, -3150.90, -31465.91, 0.00, 0.00, 0.00
225, 8691.16, 13494.69, 3454.33, -1790.58, -19324.69, -4936.76, -3160.00, -31469.18, 0.00, 0.00, 0.00
226, 8692.03, 13497.01, 3462.60, -1788.61, -19307.19, -4924.16, -3152.60, -31449.73, 0.00, 0.00, 0.00
227, 8698.65, 13506.89, 3476.81, -1777.79, -19305.29, -4914.70, -3138.90, -31439.16, -0.01, 0.97, 0.21
228, 8702.45, 13504.81, 3469.33, -1780.79, -19311.84, -4922.10, -3143.33, -31453.15, 0.00, 0.00, 0.00
229, 8687.05, 13485.21, 3445.70, -1805.26, -19337.70, -4943.42, -3166.59, -31471.23, 0.00, 0.00, 0.00
230, 8693.58, 13493.10, 3456.85, -1793.97, -19322.50, -4927.82, -3153.63, -31446.49, 0.00, 0.00, 0.00
231, 8710.63, 13512.37, 3477.98, -1770.86, -19296.95, -4905.51, -3129.49, -31426.08, 0.00, 0.00, 0.00
232, 8705.76, 13503.22, 3467.49, -1779.44, -19306.47, -4917.25, -3139.79, -31447.83, 0.00, 0.00, 0.00
233, 8696.19, 13493.75, 3454.19, -1790.15, -19319.48, -4928.36, -3152.18, -31458.45, 0.00, 0.00, 0.00
234, 8684.66, 13487.15, 3444.92, -1797.73, -19327.64, -4934.57, -3161.81, -31457.33, 0.00, 0.00, 0.00
235, 8709.71, 13509.53, 3470.94, -1774.53, -19297.65, -4911.93, -3132.80, -31430.37, 0.00, 0.00, 0.00
236, 8719.13, 13512.57, 3476.52, -1771.24, -19292.75, -4905.40, -3125.29, -31435.25, 0.00, 0.00, 0.00
237, 8695.36, 13493.35, 3449.10, -1800.99, -19329.54, -4933.81, -3156.27, -31467.50, -0.01, 0.97, 0.21
238, 8689.69, 13495.65, 3448.07, -1803.79, -19318.30, -4931.91, -3153.61, -31453.80, 0.00, 0.00, 0.00
239, 8705.92, 13511.56, 3475.61, -1782.17, -19282.98, -4908.15, -3132.64, -31427.20, 0.00, 0.00, 0.00
240, 8705.47, 13507.49, 3478.22, -1782.62, -19296.62, -4908.85, -3131.50, -31437.08, 0.00, 0.00, 0.00
241, 8688.15, 13487.24, 3454.48, -1804.28, -19322.63, -4933.39, -3153.88, -31463.95, 0.00, 0.00, 0.00
242, 8680.28, 13479.02, 3440.18, -1811.74, -19333.68, -4939.67, -3165.36, -31463.32, 0.00, 0.00, 0.00
243, 8702.29, 13503.05, 3468.86, -1779.49, -19298.34, -4902.56, -3132.64, -31422.10, 0.00, 0.00, 0.00
244, 8706.83, 13507.76, 3477.57, -1769.68, -19285.49, -4890.36, -3118.45, -31418.24, 0.00, 0.00, 0.00
245, 8696.68, 13493.81, 3457.79, -1789.41, -19304.49, -4910.92, -3137.60, -31445.71, 0.00, 0.00, 0.00
246, 8681.48, 13478.35, 3434.41, -1813.15, -19326.66, -4928.36, -3163.80, -31459.28, 0.00, 0.00, 0.00
247, 8691.79, 13489.41, 3448.29, -1804.66, -19315.19, -4915.84, -3154.59, -31436.48, -0.01, 0.96, 0.21
248, 8708.66, 13508.32, 3472.75, -1788.07, -19291.37, -4900.26, -3133.94, -31425.86, 0.00, 0.00, 0.00
249, 8705.69, 13507.20, 3467.07, -1797.19, -19298.16, -4909.65, -3136.37, -31441.35, 0.00, 0.00, 0.00
250, 8700.15, 13497.50, 3456.16, -1809.53, -19318.50, -4920.65, -3148.29, -31449.26, 0.00, 0.00, 0.00
251, 8704.19, 13506.56, 3465.41, -1797.48, -19299.88, -4901.89, -3131.90, -31424.63, 0.00, 0.00, 0.00
252, 8711.17, 13509.80, 3478.33, -1788.70, -19275.50, -4890.16, -3122.81, -31418.28, 0.00, 0.00, 0.00
253, 8697.71, 13491.47, 3459.92, -1807.90, -19307.93, -4909.38, -3141.69, -31447.54, 0.00, 0.00, 0.00
254, 8680.70, 13474.84, 3435.71, -1830.61, -19333.83, -4931.69, -3163.53, -31465.71, 0.00, 0.00, 0.00
255, 8680.79, 13480.58, 3439.35, -1825.04, -19325.00, -4922.61, -3156.98, -31448.50, 0.00, 0.00, 0.00
0, 8700.15, 13499.29, 3462.91, -1801.01, -19298.85, -4895.52, -3129.60, -31421.72, 0.00, 0.00, 0.00
1, 8703.39, 13497.46, 3456.34, -1806.22, -19305.13, -4901.16, -3136.82, -31438.91, -0.00, 0.96, 0.21
2, 8688.79, 13480.00, 3434.30, -1825.51, -19328.94, -4925.34, -3159.93, -31461.58, 0.00, 0.00, 0.00
3, 8686.07, 13484.65, 3439.06, -1818.94, -19324.00, -4919.51, -3156.31, -31446.27, 0.00, 0.00, 0.00
4, 8706.54, 13511.72, 3471.25, -1790.08, -19291.54, -4891.66, -3126.32, -31416.38, 0.00, 0.00, 0.00
5, 8710.65, 13504.48, 3466.89, -1797.68, -19303.61, -4906.01, -3137.18, -31438.91, 0.00, 0.00, 0.00
6, 8700.62, 13489.14, 3450.13, -1819.70, -19323.71, -4930.28, -3158.28, -31463.72, 0.00, 0.00, 0.00
7, 8689.04, 13486.59, 3442.06, -1826.52, -19335.20, -4935.11, -3164.87, -31460.10, 0.00, 0.00, 0.00
8, 8707.08, 13509.53, 3466.38, -1801.75, -19310.45, -4908.42, -3138.99, -31430.08, 0.00, 0.00, 0.00
9, 8704.28, 13504.57, 3467.67, -1805.51, -19289.76, -4910.95, -3138.25, -31441.59, 0.00, 0.00, 0.00
10, 8703.46, 13496.63, 3461.93, -1818.63, -19305.13, -4921.03, -3146.12, -31453.84, 0.00, 0.00, 0.00
11, 8683.56, 13481.45, 3446.37, -1835.84, -19323.46, -4930.01, -3160.11, -31454.78, -0.01, 0.96, 0.22
12, 8691.72, 13495.78, 3464.61, -1815.74, -19300.11, -4906.52, -3138.72, -31426.15, 0.00, 0.00, 0.00
13, 8714.50, 13514.78, 3483.43, -1798.76, -19276.63, -4886.11, -3115.56, -31412.04, 0.00, 0.00, 0.00
14, 8690.85, 13488.23, 3450.51, -1830.21, -19308.53, -4915.86, -3147.77, -31452.75, 0.00, 0.00, 0.00
15, 8665.23, 13469.45, 3424.64, -1856.18, -19330.88, -4942.10, -3173.19, -31471.52, 0.00, 0.00, 0.00
16, 8687.65, 13492.45, 3448.49, -1833.42, -19305.92, -4915.62, -3149.74, -31437.32, 0.00, 0.00, 0.00
17, 8696.08, 13501.86, 3458.80, -1824.13, -19301.40, -4905.27, -3141.11, -31433.68, 0.00, 0.00, 0.00
18, 8688.77, 13489.23, 3442.82, -1840.53, -19320.82, -4923.87, -3159.98, -31460.08, 0.00, 0.00, 0.00
19, 8670.31, 13473.94, 3421.52, -1860.81, -19343.02, -4944.07, -3180.16, -31475.48, 0.00, 0.00, 0.00
20, 8672.90, 13484.27, 3431.86, -1851.26, -19331.26, -4931.04, -3169.79, -31454.02, -0.01, 0.96, 0.22
21, 8698.18, 13510.13, 3462.49, -1825.78, -19298.81, -4903.50, -3138.18, -31429.03, 0.00, 0.00, 0.00
22, 8711.21, 13508.48, 3462.93, -1825.62, -19300.71, -4905.81, -3139.17, -31439.56, 0.00, 0.00, 0.00
23, 8689.26, 13486.71, 3438.88, -1851.98, -19327.55, -4933.57, -3165.81, -31464.39, 0.00, 0.00, 0.00
24, 8677.86, 13485.10, 3436.22, -1856.49, -19330.03, -4934.53, -3167.85, -31455.43, 0.00, 0.00, 0.00
25, 8690.45, 13498.98, 3456.32, -1836.42, -19313.00, -4910.88, -3143.84, -31433.86, 0.00, 0.00, 0.00
26, 8691.21, 13498.13, 3452.96, -1836.02, -19308.71, -4913.45, -3142.61, -31445.93, 0.00, 0.00, 0.00
27, 8669.53, 13477.54, 3423.95, -1860.58, -19321.79, -4943.11, -3173.52, -31475.46, 0.00, 0.00, 0.00
28, 8675.99, 13484.94, 3429.36, -1853.45, -19331.11, -4934.30, -3167.89, -31458.04, 0.00, 0.00, 0.00
29, 8693.24, 13506.78, 3452.56, -1827.79, -19312.67, -4908.13, -3142.83, -31434.02, 0.00, 0.00, 0.00
30, 8694.67, 13505.84, 3450.68, -1825.40, -19313.52, -4908.04, -3148.56, -31447.92, -0.01, 0.96, 0.22
31, 8676.97, 13483.38, 3422.59, -1849.85, -19337.03, -4934.68, -3172.72, -31474.32, 0.00, 0.00, 0.00
32, 8677.59, 13486.89, 3426.12, -1847.73, -19333.01, -4927.31, -3166.64, -31454.65, 0.00, 0.00, 0.00
33, 8689.67, 13500.77, 3447.85, -1832.44, -19313.72, -4909.72, -3150.50, -31434.96, 0.00, 0.00, 0.00
34, 8704.95, 13514.76, 3466.82, -1820.57, -19296.80, -4899.41, -3135.37, -31432.74, 0.00, 0.00, 0.00
35, 8691.36, 13499.98, 3448.87, -1847.71, -19314.34, -4924.13, -3153.79, -31460.44, 0.00, 0.00, 0.00
36, 8675.18, 13484.74, 3430.88, -1872.85, -19332.29, -4940.88, -3172.14, -31469.04, 0.00, 0.00, 0.00
37, 8690.87, 13504.34, 3452.83, -1854.95, -19309.98, -4918.55, -3151.17, -31439.63, 0.00, 0.00, 0.00
38, 8696.33, 13505.77, 3460.83, -1846.59, -19298.58, -4909.81, -3139.53, -31437.37, 0.00, 0.00, 0.00
39, 8693.17, 13498.55, 3446.82, -1859.62, -19310.83, -4920.89, -3149.49, -31453.87, 0.00, 0.00, 0.00
40, 8681.31, 13481.75, 3420.08, -1881.68, -19342.17, -4938.26, -3169.39, -31466.96, -0.02, 0.97, 0.22
41, 8683.79, 13489.55, 3432.69, -1869.25, -19315.86, -4923.04, -3156.09, -31445.86, 0.00, 0.00, 0.00
42, 8693.96, 13506.40, 3452.34, -1852.20, -19295.34, -4907.77, -3139.66, -31435.36, 0.00, 0.00, 0.00
43, 8688.41, 13497.97, 3436.40, -1863.35, -19324.42, -4923.17, -3154.64, -31458.54, 0.00, 0.00, 0.00
44, 8667.98, 13475.82, 3409.65, -1886.11, -19353.26, -4947.31, -3180.41, -31477.49, 0.00, 0.00, 0.00
45, 8689.55, 13499.13, 3434.37, -1861.59, -19326.73, -4917.45, -3156.96, -31440.12, 0.00, 0.00, 0.00
46, 8704.95, 13514.69, 3452.65, -1844.49, -19308.22, -4900.51, -3138.94, -31428.32, 0.00, 0.00, 0.00
47, 8699.14, 13509.64, 3441.01, -1855.73, -19320.96, -4915.91, -3154.08, -31454.20, 0.00, 0.00, 0.00
48, 8679.65, 13488.36, 3416.55, -1881.64, -19345.39, -4947.22, -3177.50, -31479.26, 0.00, 0.00, 0.00
49, 8689.89, 13500.79, 3433.12, -1863.49, -19326.03, -4929.39, -3160.25, -31452.08, 0.00, 0.00, 0.00
50, 8709.00, 13521.53, 3460.12, -1837.83, -19296.44, -4898.90, -3130.63, -31424.27, -0.01, 0.97, 0.22
51, 8709.13, 13519.81, 3455.83, -1841.07, -19301.42, -4901.69, -3133.71, -31436.88, 0.00, 0.00, 0.00
52, 8694.34, 13497.79, 3429.52, -1865.52, -19332.83, -4928.02, -3159.35, -31464.35, 0.00, 0.00, 0.00
53, 8682.85, 13490.19, 3420.11, -1871.09, -19327.26, -4931.82, -3168.58, -31459.70, 0.00, 0.00, 0.00
54, 8705.07, 13514.67, 3457.37, -1842.10, -19291.72, -4897.38, -3134.81, -31422.86, 0.00, 0.00, 0.00
55, 8706.32, 13510.87, 3458.60, -1845.76, -19304.91, -4900.20, -3134.88, -31434.24, 0.00, 0.00, 0.00
56, 8688.50, 13491.60, 3433.09, -1872.90, -19328.85, -4926.28, -3159.40, -31462.52, 0.00, 0.00, 0.00
57, 8679.63, 13485.23, 3423.44, -1883.51, -19337.39, -4931.67, -3167.49, -31459.10, 0.00, 0.00, 0.00
58, 8707.70, 13515.05, 3457.35, -1854.73, -19302.41, -4897.47, -3133.00, -31418.24, 0.00, 0.00, 0.00
59, 8715.64, 13520.21, 3464.65, -1847.64, -19293.71, -4895.46, -3124.86, -31421.16, 0.00, 0.00, 0.00
60, 8682.11, 13487.27, 3427.37, -1885.46, -19328.34, -4933.41, -3160.02, -31463.81, -0.01, 0.97, 0.22
61, 8680.32, 13486.17, 3426.34, -1887.52, -19325.14, -4929.14, -3159.22, -31453.98, 0.00, 0.00, 0.00
62, 8702.12, 13511.54, 3454.17, -1862.06, -19297.49, -4900.60, -3131.32, -31419.22, 0.00, 0.00, 0.00
63, 8704.17, 13514.33, 3461.30, -1855.55, -19292.10, -4895.97, -3125.65, -31420.90, 0.00, 0.00, 0.00
64, 8694.92, 13500.52, 3443.42, -1873.68, -19310.32, -4916.96, -3144.42, -31449.53, 0.00, 0.00, 0.00
65, 8680.63, 13487.53, 3428.71, -1890.24, -19326.01, -4932.07, -3154.86, -31457.75, 0.00, 0.00, 0.00
66, 8682.60, 13495.11, 3434.93, -1880.14, -19320.38, -4918.28, -3143.59, -31434.53, 0.00, 0.00, 0.00
67, 8700.39, 13512.97, 3454.13, -1863.64, -19288.24, -4904.26, -3127.93, -31422.80, 0.00, 0.00, 0.00
68, 8692.28, 13504.19, 3441.59, -1875.62, -19312.17, -4923.46, -3144.24, -31448.19, 0.00, 0.00, 0.00
69, 8678.42, 13488.74, 3419.46, -1893.13, -19336.38, -4940.79, -3164.52, -31462.74, 0.00, 0.00, 0.00
70, 8677.46, 13492.81, 3420.89, -1888.21, -19336.34, -4935.47, -3163.35, -31450.71, -0.00, 0.96, 0.22
71, 8701.71, 13515.38, 3451.62, -1861.43, -19307.23, -4907.71, -3136.42, -31423.51, 0.00, 0.00, 0.00
72, 8702.88, 13513.95, 3449.05, -1862.28, -19307.71, -4910.54, -3139.12, -31436.54, 0.00, 0.00, 0.00
73, 8689.17, 13503.60, 3433.21, -1879.80, -19321.25, -4928.65, -3154.66, -31450.94, 0.00, 0.00, 0.00
74, 8684.41, 13502.64, 3433.18, -1884.01, -19320.22, -4925.39, -3154.37, -31440.61, 0.00, 0.00, 0.00
75, 8692.77, 13513.60, 3453.43, -1867.80, -19302.83, -4906.43, -3134.09, -31419.51, 0.00, 0.00, 0.00
76, 8689.02, 13508.12, 3444.58, -1874.75, -19309.45, -4915.10, -3135.61, -31434.55, 0.00, 0.00, 0.00
77, 8664.36, 13479.93, 3412.78, -1904.01, -19325.36, -4943.83, -3163.22, -31462.74, 0.00, 0.00, 0.00
78, 8667.72, 13488.20, 3422.61, -1895.47, -19326.64, -4931.69, -3155.95, -31441.33, 0.00, 0.00, 0.00
79, 8702.14, 13525.80, 3463.20, -1858.30, -19291.86, -4890.27, -3116.91, -31398.63, 0.00, 0.00, 0.00
80, 8698.99, 13521.84, 3456.03, -1865.32, -19298.99, -4897.07, -3125.65, -31416.20, -0.00, 0.97, 0.22
81, 8672.34, 13492.74, 3419.73, -1901.62, -19336.92, -4934.57, -3158.59, -31455.32, 0.00, 0.00, 0.00
82, 8661.77, 13484.90, 3411.01, -1911.86, -19346.87, -4940.18, -3167.82, -31453.64, 0.00, 0.00, 0.00
83, 8678.18, 13508.99, 3440.58, -1881.48, -19313.61, -4907.48, -3138.34, -31416.94, 0.00, 0.00, 0.00
84, 8691.32, 13519.79, 3454.40, -1868.87, -19298.32, -4897.31, -3126.27, -31415.42, 0.00, 0.00, 0.00
85, 8681.06, 13501.64, 3430.97, -1891.14, -19323.51, -4920.96, -3149.03, -31444.61, 0.00, 0.00, 0.00
86, 8673.30, 13496.88, 3422.63, -1899.38, -19331.44, -4930.91, -3157.79, -31445.77, 0.00, 0.00, 0.00
87, 8690.25, 13515.56, 3446.73, -1877.95, -19306.36, -4906.12, -3136.15, -31415.64, 0.00, 0.00, 0.00
88, 8697.69, 13521.51, 3452.85, -1872.63, -19298.92, -4902.05, -3131.46, -31419.20, 0.00, 0.00, 0.00
89, 8682.07, 13504.66, 3433.52, -1892.95, -19321.43, -4926.59, -3154.26, -31451.61, 0.00, 0.00, 0.00
90, 8672.23, 13497.68, 3422.36, -1902.98, -19336.58, -4938.22, -3167.78, -31458.76, -0.01, 0.97, 0.22
91, 8683.52, 13511.05, 3438.17, -1886.87, -19323.28, -4912.62, -3147.62, -31424.18, 0.00, 0.00, 0.00
92, 8697.76, 13527.86, 3456.94, -1870.19, -19285.46, -4897.13, -3126.29, -31411.75, 0.00, 0.00, 0.00
93, 8694.36, 13518.63, 3448.38, -1880.72, -19301.31, -4915.69, -3140.40, -31436.81, 0.00, 0.00, 0.00
94, 8685.44, 13505.75, 3434.66, -1896.17, -19326.37, -4928.34, -3154.86, -31447.56, 0.00, 0.00, 0.00
95, 8675.23, 13502.04, 3433.32, -1901.13, -19326.23, -4924.27, -3154.75, -31436.48, 0.00, 0.00, 0.00
96, 8681.19, 13510.94, 3445.83, -1891.20, -19310.28, -4914.61, -3141.34, -31426.39, 0.00, 0.00, 0.00
97, 8686.07, 13510.22, 3441.45, -1895.63, -19312.38, -4923.35, -3144.71, -31440.81, 0.00, 0.00, 0.00
98, 8671.05, 13494.33, 3416.04, -1916.48, -19331.49, -4939.02, -3162.12, -31453.22, 0.00, 0.00, 0.00
99, 8670.64, 13502.04, 3417.56, -1910.34, -19330.26, -4929.03, -3157.99, -31434.62, -0.01, 0.97, 0.21
100, 8684.95, 13519.25, 3440.22, -1889.95, -19307.39, -4906.25, -3135.28, -31411.51, 0.00, 0.00, 0.00
101, 8680.77, 13513.37, 3431.75, -1896.48, -19313.54, -4916.27, -3142.25, -31431.00, 0.00, 0.00, 0.00
102, 8667.25, 13493.32, 3409.71, -1920.33, -19337.95, -4942.19, -3164.45, -31456.64, 0.00, 0.00, 0.00
103, 8657.25, 13488.16, 3402.38, -1930.18, -19346.53, -4949.17, -3172.74, -31455.61, 0.00, 0.00, 0.00
104, 8678.65, 13510.22, 3434.88, -1900.99, -19315.48, -4914.84, -3142.61, -31419.06, 0.00, 0.00, 0.00
105, 8698.67, 13523.16, 3450.64, -1886.33, -19302.50, -4899.28, -3122.90, -31412.87, 0.00, 0.00, 0.00
106, 8677.01, 13496.79, 3418.39, -1919.41, -19324.18, -4930.15, -3150.34, -31447.47, 0.00, 0.00, 0.00
107, 8656.74, 13486.04, 3403.66, -1933.02, -19330.93, -4944.79, -3168.83, -31453.06, 0.00, 0.00, 0.00
108, 8667.89, 13501.64, 3419.79, -1916.35, -19325.36, -4924.89, -3151.39, -31428.92, 0.00, 0.00, 0.00
109, 8677.19, 13513.55, 3432.18, -1906.80, -19314.23, -4914.86, -3140.00, -31428.54, -0.01, 0.97, 0.21
110, 8673.64, 13504.32, 3420.15, -1919.05, -19328.94, -4929.14, -3153.03, -31449.13, 0.00, 0.00, 0.00
111, 8658.35, 13489.37, 3400.75, -1936.91, -19344.36, -4948.74, -3172.43, -31461.13, 0.00, 0.00, 0.00
112, 8669.88, 13502.60, 3421.63, -1921.78, -19327.98, -4931.76, -3157.72, -31438.31, 0.00, 0.00, 0.00
113, 8680.10, 13510.49, 3437.36, -1908.46, -19311.13, -4918.41, -3142.36, -31427.07, 0.00, 0.00, 0.00
114, 8675.34, 13504.32, 3428.60, -1917.87, -19320.94, -4933.97, -3152.02, -31447.05, 0.00, 0.00, 0.00
115, 8669.37, 13493.77, 3417.27, -1934.32, -19338.71, -4947.40, -3165.30, -31455.92, 0.00, 0.00, 0.00
116, 8671.52, 13502.20, 3423.57, -1925.42, -19328.83, -4934.33, -3153.88, -31435.02, 0.00, 0.00, 0.00
117, 8677.82, 13510.49, 3433.36, -1915.79, -19298.99, -4924.85, -3142.57, -31429.50, 0.00, 0.00, 0.00
118, 8669.55, 13494.71, 3417.98, -1934.07, -19327.20, -4945.41, -3159.96, -31457.93, 0.00, 0.00, 0.00
119, 8659.76, 13485.34, 3402.61, -1946.93, -19347.51, -4961.24, -3173.97, -31467.95, -0.00, 0.96, 0.21
120, 8655.89, 13488.83, 3403.79, -1942.75, -19343.65, -4955.07, -3171.53, -31454.89, 0.00, 0.00, 0.00
121, 8672.81, 13509.55, 3430.46, -1920.22, -19313.67, -4929.32, -3143.24, -31429.66, 0.00, 0.00, 0.00
122, 8682.38, 13510.89, 3431.28, -1920.01, -19315.06, -4929.48, -3142.14, -31439.07, 0.00, 0.00, 0.00
123, 8661.68, 13486.68, 3400.35, -1947.71, -19347.42, -4956.86, -3174.26, -31467.59, 0.00, 0.00, 0.00
124, 8650.86, 13482.37, 3394.51, -1953.30, -19350.55, -4963.27, -3182.04, -31463.68, 0.00, 0.00, 0.00
125, 8684.21, 13515.21, 3433.41, -1918.58, -19311.21, -4925.63, -3140.84, -31423.09, 0.00, 0.00, 0.00
126, 8687.83, 13520.55, 3436.22, -1914.11, -19308.42, -4919.19, -3137.98, -31429.95, 0.00, 0.00, 0.00
127, 8664.45, 13495.85, 3407.68, -1943.64, -19337.39, -4947.71, -3165.95, -31460.71, 0.00, 0.00, 0.00
128, 8668.14, 13499.27, 3407.88, -1941.18, -19337.37, -4944.76, -3166.84, -31449.26, 0.00, 0.00, 0.00
129, 8689.53, 13527.90, 3437.52, -1912.06, -19305.89, -4911.73, -3134.59, -31411.96, -0.01, 0.96, 0.21
130, 8686.13, 13526.34, 3433.27, -1915.23, -19307.97, -4913.92, -3139.15, -31427.76, 0.00, 0.00, 0.00
131, 8665.97, 13501.91, 3402.87, -1943.15, -19339.44, -4945.93, -3167.62, -31462.07, 0.00, 0.00, 0.00
132, 8648.27, 13486.91, 3390.11, -1954.21, -19351.98, -4959.94, -3180.90, -31467.05, 0.00, 0.00, 0.00
133, 8665.41, 13512.25, 3421.96, -1928.71, -19320.82, -4931.96, -3147.93, -31429.86, 0.00, 0.00, 0.00
134, 8686.45, 13528.75, 3441.03, -1914.18, -19304.78, -4915.08, -3126.49, -31419.64, 0.00, 0.00, 0.00
135, 8678.87, 13511.52, 3421.63, -1939.55, -19308.71, -4937.37, -3149.09, -31446.69, 0.00, 0.00, 0.00
136, 8665.79, 13501.10, 3411.08, -1952.02, -19327.37, -4944.65, -3159.89, -31448.90, 0.00, 0.00, 0.00
137, 8667.89, 13511.43, 3419.64, -1941.14, -19322.63, -4931.00, -3148.27, -31427.54, 0.00, 0.00, 0.00
138, 8690.56, 13533.02, 3444.65, -1918.27, -19298.96, -4907.28, -3122.63, -31407.84, 0.00, 0.00, 0.00
139, 8677.46, 13512.77, 3425.94, -1937.43, -19318.37, -4928.98, -3143.86, -31437.68, -0.01, 0.96, 0.21
140, 8653.54, 13487.56, 3400.75, -1963.20, -19345.95, -4956.45, -3171.62, -31460.77, 0.00, 0.00, 0.00
141, 8665.19, 13501.30, 3416.22, -1945.21, -19332.67, -4937.72, -3161.12, -31438.44, 0.00, 0.00, 0.00
142, 8687.38, 13526.36, 3442.64, -1916.84, -19307.59, -4914.12, -3135.37, -31416.58, 0.00, 0.00, 0.00
143, 8682.29, 13516.95, 3428.40, -1929.27, -19322.72, -4929.45, -3150.23, -31441.62, 0.00, 0.00, 0.00
144, 8677.91, 13506.22, 3409.24, -1946.75, -19340.79, -4947.07, -3167.49, -31457.20, 0.00, 0.00, 0.00
145, 8676.95, 13510.22, 3411.99, -1943.33, -19334.39, -4938.89, -3161.72, -31441.79, 0.00, 0.00, 0.00
146, 8694.60, 13532.30, 3441.52, -1916.89, -19306.63, -4907.39, -3128.28, -31407.04, 0.00, 0.00, 0.00
147, 8694.40, 13528.86, 3439.40, -1923.86, -19301.58, -4915.22, -3130.43, -31421.21, 0.00, 0.00, 0.00
148, 8677.30, 13510.38, 3419.24, -1950.46, -19312.04, -4939.56, -3148.85, -31440.34, 0.00, 0.00, 0.00
149, 8668.05, 13506.42, 3414.79, -1953.52, -19325.18, -4936.79, -3148.00, -31429.81, -0.01, 0.96, 0.22
150, 8692.50, 13530.96, 3438.37, -1933.07, -19302.16, -4913.52, -3125.20, -31405.45, 0.00, 0.00, 0.00
151, 8696.91, 13532.62, 3438.48, -1933.67, -19304.44, -4915.04, -3127.10, -31418.75, 0.00, 0.00, 0.00
152, 8678.02, 13510.78, 3414.21, -1959.62, -19334.82, -4944.85, -3158.46, -31451.25, 0.00, 0.00, 0.00
153, 8667.27, 13505.08, 3402.52, -1971.24, -19345.32, -4950.49, -3170.42, -31450.78, 0.00, 0.00, 0.00
154, 8689.04, 13526.09, 3428.00, -1945.61, -19316.31, -4922.19, -3144.58, -31420.43, 0.00, 0.00, 0.00
155, 8699.41, 13534.52, 3439.80, -1933.74, -19306.34, -4913.16, -3132.95, -31418.44, 0.00, 0.00, 0.00
