%OpenBCI Raw EEG Data
%
%Sample Rate = 250.0 Hz
%First Column = SampleIndex
%Other Columns = EEG data in microvolts followed by Accel Data (in G) interleaved with Aux Data
0, -152306.95, -187500.02, -133738.80, -125839.73, -187500.02, -182211.58, -187500.02, -187500.02, 0.00, 0.90, 0.42
1, -152976.77, -187500.02, -133894.75, -125757.26, -187500.02, -182058.22, -187500.02, -187500.02, 0.00, 0.00, 0.00
2, -153485.22, -187500.02, -134017.75, -125696.41, -187500.02, -181943.11, -187500.02, -187500.02, 0.00, 0.00, 0.00
3, -152867.39, -187500.02, -133871.95, -125772.57, -187500.02, -182081.66, -187500.02, -187500.02, 0.00, 0.00, 0.00
4, -152294.05, -187500.02, -133733.09, -125842.04, -187500.02, -182208.20, -187500.02, -187500.02, 0.00, 0.00, 0.00
5, -152827.80, -187500.02, -133856.28, -125777.20, -187500.02, -182086.84, -187500.02, -187500.02, 0.00, 0.00, 0.00
6, -153488.73, -187500.02, -134010.28, -125694.59, -187500.02, -181933.56, -187500.02, -187500.02, 0.00, 0.00, 0.00
7, -153025.45, -187500.02, -133901.97, -125749.79, -187500.02, -182034.14, -187500.02, -187500.02, 0.01, 0.90, 0.41
8, -152312.42, -187500.02, -133733.55, -125835.89, -187500.02, -182191.44, -187500.02, -187500.02, 0.00, 0.00, 0.00
9, -152673.34, -187500.02, -133812.52, -125789.35, -187500.02, -182107.39, -187500.02, -187500.02, 0.00, 0.00, 0.00
10, -153443.16, -187500.02, -133993.81, -125696.38, -187500.02, -181935.38, -187500.02, -187500.02, 0.00, 0.00, 0.00
11, -153176.52, -187500.02, -133934.05, -125729.05, -187500.02, -181993.97, -187500.02, -187500.02, 0.00, 0.00, 0.00
12, -152373.72, -187500.02, -133749.69, -125829.84, -187500.02, -182175.34, -187500.02, -187500.02, 0.00, 0.00, 0.00
13, -152538.31, -187500.02, -133783.09, -125809.45, -187500.02, -182137.50, -187500.02, -187500.02, 0.00, 0.00, 0.00
14, -153364.72, -187500.02, -133970.72, -125705.65, -187500.02, -181948.77, -187500.02, -187500.02, 0.00, 0.00, 0.00
15, -153305.72, -187500.02, -133958.69, -125710.07, -187500.02, -181958.14, -187500.02, -187500.02, 0.00, 0.00, 0.00
16, -152468.94, -187500.02, -133767.34, -125814.63, -187500.02, -182147.20, -187500.02, -187500.02, 0.01, 0.90, 0.41
17, -152423.73, -187500.02, -133755.20, -125823.33, -187500.02, -182160.61, -187500.02, -187500.02, 0.00, 0.00, 0.00
18, -153248.11, -187500.02, -133942.63, -125721.80, -187500.02, -181975.52, -187500.02, -187500.02, 0.00, 0.00, 0.00
19, -153416.98, -187500.02, -133983.34, -125702.36, -187500.02, -181938.88, -187500.02, -187500.02, 0.00, 0.00, 0.00
20, -152604.19, -187500.02, -133796.83, -125802.68, -187500.02, -182122.56, -187500.02, -187500.02, 0.00, 0.00, 0.00
21, -152342.59, -187500.02, -133730.08, -125830.73, -187500.02, -182177.81, -187500.02, -187500.02, 0.00, 0.00, 0.00
22, -153102.56, -187500.02, -133905.23, -125738.28, -187500.02, -182009.36, -187500.02, -187500.02, 0.00, 0.00, 0.00
23, -153470.33, -187500.02, -133990.98, -125691.14, -187500.02, -181925.00, -187500.02, -187500.02, 0.00, 0.00, 0.00
24, -152746.09, -187500.02, -133820.11, -125778.36, -187500.02, -182086.78, -187500.02, -187500.02, 0.00, 0.00, 0.00
25, -152300.11, -187500.02, -133713.06, -125833.03, -187500.02, -182187.55, -187500.02, -187500.02, 0.00, 0.00, 0.00
26, -152953.00, -187500.02, -133865.58, -125756.70, -187500.02, -182045.55, -187500.02, -187500.02, 0.01, 0.90, 0.41
27, -153497.00, -187500.02, -133996.36, -125691.01, -187500.02, -181924.44, -187500.02, -187500.02, 0.00, 0.00, 0.00
28, -152905.33, -187500.02, -133857.58, -125762.45, -187500.02, -182057.50, -187500.02, -187500.02, 0.00, 0.00, 0.00
29, -152301.41, -187500.02, -133713.39, -125837.66, -187500.02, -182195.86, -187500.02, -187500.02, 0.00, 0.00, 0.00
30, -152790.02, -187500.02, -133825.00, -125774.80, -187500.02, -182085.00, -187500.02, -187500.02, 0.00, 0.00, 0.00
31, -153462.88, -187500.02, -133981.89, -125686.11, -187500.02, -181928.69, -187500.02, -187500.02, 0.00, 0.00, 0.00
32, -153037.27, -187500.02, -133881.00, -125734.68, -187500.02, -182024.08, -187500.02, -187500.02, 0.00, 0.00, 0.00
33, -152310.30, -187500.02, -133705.81, -125821.67, -187500.02, -182189.44, -187500.02, -187500.02, 0.00, 0.00, 0.00
34, -152619.41, -187500.02, -133775.39, -125782.20, -187500.02, -182122.19, -187500.02, -187500.02, 0.00, 0.00, 0.00
35, -153373.55, -187500.02, -133955.77, -125685.20, -187500.02, -181951.06, -187500.02, -187500.02, 0.00, 0.00, 0.00
36, -153149.56, -187500.02, -133904.53, -125710.74, -187500.02, -182004.58, -187500.02, -187500.02, 0.01, 0.90, 0.41
37, -152353.91, -187500.02, -133714.56, -125808.78, -187500.02, -182190.38, -187500.02, -187500.02, 0.00, 0.00, 0.00
38, -152454.89, -187500.02, -133730.42, -125788.20, -187500.02, -182164.05, -187500.02, -187500.02, 0.00, 0.00, 0.00
39, -153246.08, -187500.02, -133916.66, -125684.28, -187500.02, -181982.58, -187500.02, -187500.02, 0.00, 0.00, 0.00
40, -153228.41, -187500.02, -133915.64, -125683.01, -187500.02, -181988.23, -187500.02, -187500.02, 0.00, 0.00, 0.00
41, -152409.16, -187500.02, -133715.81, -125777.06, -187500.02, -182172.55, -187500.02, -187500.02, 0.00, 0.00, 0.00
42, -152310.02, -187500.02, -133686.88, -125785.24, -187500.02, -182195.91, -187500.02, -187500.02, 0.00, 0.00, 0.00
43, -153091.30, -187500.02, -133872.45, -125686.80, -187500.02, -182020.80, -187500.02, -187500.02, 0.00, 0.00, 0.00
44, -153290.03, -187500.02, -133920.58, -125659.23, -187500.02, -181976.30, -187500.02, -187500.02, 0.00, 0.00, 0.00
45, -152508.67, -187500.02, -133735.22, -125754.69, -187500.02, -182157.59, -187500.02, -187500.02, 0.00, 0.00, 0.00
46, -152208.41, -187500.02, -133659.06, -125787.34, -187500.02, -182224.33, -187500.02, -187500.02, 0.01, 0.90, 0.41
47, -152923.61, -187500.02, -133827.02, -125693.89, -187500.02, -182058.23, -187500.02, -187500.02, 0.00, 0.00, 0.00
48, -153323.42, -187500.02, -133926.53, -125647.02, -187500.02, -181970.73, -187500.02, -187500.02, 0.00, 0.00, 0.00
49, -152638.50, -187500.02, -133761.44, -125731.58, -187500.02, -182127.78, -187500.02, -187500.02, 0.00, 0.00, 0.00
50, -152154.22, -187500.02, -133639.16, -125784.98, -187500.02, -182231.02, -187500.02, -187500.02, 0.00, 0.00, 0.00
51, -152754.75, -187500.02, -133778.81, -125708.24, -187500.02, -182090.22, -187500.02, -187500.02, 0.00, 0.00, 0.00
52, -153313.77, -187500.02, -133914.53, -125644.23, -187500.02, -181962.78, -187500.02, -187500.02, 0.00, 0.00, 0.00
53, -152758.20, -187500.02, -133781.59, -125719.91, -187500.02, -182090.98, -187500.02, -187500.02, 0.00, 0.00, 0.00
54, -152131.53, -187500.02, -133628.36, -125798.70, -187500.02, -182233.52, -187500.02, -187500.02, 0.00, 0.00, 0.00
55, -152581.94, -187500.02, -133733.98, -125743.42, -187500.02, -182130.81, -187500.02, -187500.02, 0.00, 0.00, 0.00
56, -153276.88, -187500.02, -133901.56, -125657.41, -187500.02, -181970.55, -187500.02, -187500.02, 0.01, 0.90, 0.41
57, -152901.11, -187500.02, -133811.86, -125700.24, -187500.02, -182049.78, -187500.02, -187500.02, 0.00, 0.00, 0.00
58, -152166.94, -187500.02, -133634.86, -125790.77, -187500.02, -182213.30, -187500.02, -187500.02, 0.00, 0.00, 0.00
59, -152448.19, -187500.02, -133698.19, -125758.24, -187500.02, -182148.25, -187500.02, -187500.02, 0.00, 0.00, 0.00
60, -153230.39, -187500.02, -133886.19, -125662.66, -187500.02, -181967.48, -187500.02, -187500.02, 0.00, 0.00, 0.00
61, -153065.83, -187500.02, -133850.98, -125686.07, -187500.02, -182003.88, -187500.02, -187500.02, 0.00, 0.00, 0.00
62, -152269.17, -187500.02, -133660.08, -125784.08, -187500.02, -182179.39, -187500.02, -187500.02, 0.00, 0.00, 0.00
63, -152349.06, -187500.02, -133673.06, -125772.84, -187500.02, -182153.66, -187500.02, -187500.02, 0.00, 0.00, 0.00
64, -153176.25, -187500.02, -133868.70, -125673.38, -187500.02, -181961.23, -187500.02, -187500.02, 0.00, 0.00, 0.00
65, -153230.72, -187500.02, -133888.42, -125672.26, -187500.02, -181947.00, -187500.02, -187500.02, 0.00, 0.00, 0.00
66, -152439.14, -187500.02, -133703.80, -125775.32, -187500.02, -182124.17, -187500.02, -187500.02, 0.00, 0.90, 0.41
67, -152323.83, -187500.02, -133674.41, -125790.77, -187500.02, -182143.94, -187500.02, -187500.02, 0.00, 0.00, 0.00
68, -153122.14, -187500.02, -133863.98, -125693.04, -187500.02, -181955.17, -187500.02, -187500.02, 0.00, 0.00, 0.00
69, -153390.92, -187500.02, -133931.53, -125664.21, -187500.02, -181889.45, -187500.02, -187500.02, 0.00, 0.00, 0.00
70, -152651.03, -187500.02, -133757.22, -125759.63, -187500.02, -182055.25, -187500.02, -187500.02, 0.00, 0.00, 0.00
71, -152332.47, -187500.02, -133678.31, -125799.57, -187500.02, -182123.02, -187500.02, -187500.02, 0.00, 0.00, 0.00
72, -153033.88, -187500.02, -133846.58, -125713.05, -187500.02, -181959.72, -187500.02, -187500.02, 0.00, 0.00, 0.00
73, -153475.75, -187500.02, -133955.20, -125656.52, -187500.02, -181854.22, -187500.02, -187500.02, 0.00, 0.00, 0.00
74, -152836.06, -187500.02, -133801.05, -125736.27, -187500.02, -181999.94, -187500.02, -187500.02, 0.00, 0.00, 0.00
75, -152333.55, -187500.02, -133675.81, -125794.54, -187500.02, -182111.38, -187500.02, -187500.02, 0.00, 0.00, 0.00
76, -152899.42, -187500.02, -133808.73, -125718.32, -187500.02, -181976.75, -187500.02, -187500.02, 0.01, 0.90, 0.41
77, -153492.63, -187500.02, -133955.44, -125639.48, -187500.02, -181835.91, -187500.02, -187500.02, 0.00, 0.00, 0.00
78, -153002.69, -187500.02, -133838.94, -125696.93, -187500.02, -181946.34, -187500.02, -187500.02, 0.00, 0.00, 0.00
79, -152375.55, -187500.02, -133683.83, -125771.18, -187500.02, -182088.80, -187500.02, -187500.02, 0.00, 0.00, 0.00
80, -152784.03, -187500.02, -133781.48, -125716.27, -187500.02, -181993.08, -187500.02, -187500.02, 0.00, 0.00, 0.00
81, -153489.30, -187500.02, -133956.09, -125625.16, -187500.02, -181828.34, -187500.02, -187500.02, 0.00, 0.00, 0.00
82, -153168.31, -187500.02, -133878.70, -125661.86, -187500.02, -181899.14, -187500.02, -187500.02, 0.00, 0.00, 0.00
83, -152432.61, -187500.02, -133694.19, -125749.50, -187500.02, -182064.25, -187500.02, -187500.02, 0.00, 0.00, 0.00
84, -152654.75, -187500.02, -133743.72, -125719.04, -187500.02, -182011.09, -187500.02, -187500.02, 0.00, 0.00, 0.00
85, -153412.41, -187500.02, -133930.38, -125619.30, -187500.02, -181831.86, -187500.02, -187500.02, 0.00, 0.00, 0.00
86, -153294.06, -187500.02, -133903.38, -125633.32, -187500.02, -181858.69, -187500.02, -187500.02, 0.00, 0.90, 0.41
87, -152520.08, -187500.02, -133713.16, -125733.50, -187500.02, -182041.31, -187500.02, -187500.02, 0.00, 0.00, 0.00
88, -152540.28, -187500.02, -133713.20, -125729.14, -187500.02, -182035.33, -187500.02, -187500.02, 0.00, 0.00, 0.00
89, -153315.06, -187500.02, -133902.05, -125628.89, -187500.02, -181853.83, -187500.02, -187500.02, 0.00, 0.00, 0.00
90, -153399.08, -187500.02, -133926.19, -125618.07, -187500.02, -181835.06, -187500.02, -187500.02, 0.00, 0.00, 0.00
91, -152626.83, -187500.02, -133735.02, -125716.22, -187500.02, -182016.33, -187500.02, -187500.02, 0.00, 0.00, 0.00
92, -152444.25, -187500.02, -133685.05, -125737.19, -187500.02, -182057.72, -187500.02, -187500.02, 0.00, 0.00, 0.00
93, -153174.06, -187500.02, -133861.95, -125641.74, -187500.02, -181886.47, -187500.02, -187500.02, 0.00, 0.00, 0.00
94, -153462.88, -187500.02, -133933.55, -125604.53, -187500.02, -181820.08, -187500.02, -187500.02, 0.00, 0.00, 0.00
95, -152749.53, -187500.02, -133757.13, -125694.29, -187500.02, -181986.94, -187500.02, -187500.02, 0.00, 0.00, 0.00
96, -152382.50, -187500.02, -133662.41, -125738.82, -187500.02, -182070.69, -187500.02, -187500.02, 0.00, 0.90, 0.42
97, -153028.80, -187500.02, -133819.89, -125655.00, -187500.02, -181919.19, -187500.02, -187500.02, 0.00, 0.00, 0.00
98, -153491.22, -187500.02, -133936.16, -125597.45, -187500.02, -181814.06, -187500.02, -187500.02, 0.00, 0.00, 0.00
99, -152894.59, -187500.02, -133790.08, -125678.47, -187500.02, -181960.98, -187500.02, -187500.02, 0.00, 0.00, 0.00
100, -152360.86, -187500.02, -133654.64, -125742.91, -187500.02, -182083.81, -187500.02, -187500.02, 0.00, 0.00, 0.00
101, -152869.23, -187500.02, -133775.88, -125672.34, -187500.02, -181961.66, -187500.02, -187500.02, 0.00, 0.00, 0.00
102, -153467.61, -187500.02, -133923.95, -125592.68, -187500.02, -181821.48, -187500.02, -187500.02, 0.00, 0.00, 0.00
103, -153014.50, -187500.02, -133811.59, -125650.53, -187500.02, -181932.28, -187500.02, -187500.02, 0.00, 0.00, 0.00
104, -152355.91, -187500.02, -133643.63, -125731.15, -187500.02, -182087.25, -187500.02, -187500.02, 0.00, 0.00, 0.00
105, -152695.98, -187500.02, -133724.53, -125682.20, -187500.02, -182007.14, -187500.02, -187500.02, 0.00, 0.90, 0.41
106, -153390.97, -187500.02, -133897.09, -125589.58, -187500.02, -181846.45, -187500.02, -187500.02, 0.00, 0.00, 0.00
107, -153109.80, -187500.02, -133827.20, -125622.55, -187500.02, -181916.91, -187500.02, -187500.02, 0.00, 0.00, 0.00
108, -152361.16, -187500.02, -133638.70, -125715.02, -187500.02, -182097.13, -187500.02, -187500.02, 0.00, 0.00, 0.00
109, -152520.41, -187500.02, -133674.27, -125690.80, -187500.02, -182064.27, -187500.02, -187500.02, 0.00, 0.00, 0.00
110, -153258.91, -187500.02, -133856.56, -125588.39, -187500.02, -181891.77, -187500.02, -187500.02, 0.00, 0.00, 0.00
111, -153165.22, -187500.02, -133828.81, -125589.40, -187500.02, -181911.95, -187500.02, -187500.02, 0.00, 0.00, 0.00
112, -152371.80, -187500.02, -133626.48, -125682.91, -187500.02, -182100.13, -187500.02, -187500.02, 0.00, 0.00, 0.00
113, -152330.23, -187500.02, -133613.03, -125684.44, -187500.02, -182116.59, -187500.02, -187500.02, 0.00, 0.00, 0.00
114, -153070.38, -187500.02, -133794.92, -125583.63, -187500.02, -181947.03, -187500.02, -187500.02, 0.00, 0.00, 0.00
115, -153180.83, -187500.02, -133823.69, -125563.42, -187500.02, -181925.84, -187500.02, -187500.02, 0.01, 0.91, 0.42
116, -152416.39, -187500.02, -133631.27, -125655.94, -187500.02, -182111.39, -187500.02, -187500.02, 0.00, 0.00, 0.00
117, -152175.66, -187500.02, -133565.66, -125679.32, -187500.02, -182170.53, -187500.02, -187500.02, 0.00, 0.00, 0.00
118, -152866.77, -187500.02, -133734.97, -125585.26, -187500.02, -182012.58, -187500.02, -187500.02, 0.00, 0.00, 0.00
119, -153180.34, -187500.02, -133812.41, -125540.02, -187500.02, -181943.02, -187500.02, -187500.02, 0.00, 0.00, 0.00
120, -152482.19, -187500.02, -133640.38, -125628.11, -187500.02, -182115.95, -187500.02, -187500.02, 0.00, 0.00, 0.00
121, -152066.05, -187500.02, -133533.05, -125677.41, -187500.02, -182217.88, -187500.02, -187500.02, 0.00, 0.00, 0.00
122, -152664.91, -187500.02, -133675.72, -125592.66, -187500.02, -182075.53, -187500.02, -187500.02, 0.00, 0.00, 0.00
123, -153152.89, -187500.02, -133796.23, -125526.01, -187500.02, -181962.27, -187500.02, -187500.02, 0.00, 0.00, 0.00
124, -152582.41, -187500.02, -133654.42, -125599.92, -187500.02, -182103.83, -187500.02, -187500.02, 0.00, 0.00, 0.00
125, -152014.86, -187500.02, -133510.08, -125668.74, -187500.02, -182237.59, -187500.02, -187500.02, -0.00, 0.91, 0.41
126, -152488.45, -187500.02, -133622.75, -125602.77, -187500.02, -182123.53, -187500.02, -187500.02, 0.00, 0.00, 0.00
127, -153114.34, -187500.02, -133779.36, -125521.63, -187500.02, -181977.30, -187500.02, -187500.02, 0.00, 0.00, 0.00
128, -152706.06, -187500.02, -133681.27, -125578.66, -187500.02, -182081.17, -187500.02, -187500.02, 0.00, 0.00, 0.00
129, -152036.58, -187500.02, -133513.47, -125666.66, -187500.02, -182242.97, -187500.02, -187500.02, 0.00, 0.00, 0.00
130, -152349.31, -187500.02, -133589.20, -125625.80, -187500.02, -182169.22, -187500.02, -187500.02, 0.00, 0.00, 0.00
131, -153069.91, -187500.02, -133768.06, -125531.39, -187500.02, -181997.00, -187500.02, -187500.02, 0.00, 0.00, 0.00
132, -152846.00, -187500.02, -133714.81, -125561.61, -187500.02, -182051.47, -187500.02, -187500.02, 0.00, 0.00, 0.00
133, -152099.66, -187500.02, -133529.19, -125658.93, -187500.02, -182228.45, -187500.02, -187500.02, 0.00, 0.00, 0.00
134, -152233.03, -187500.02, -133557.72, -125641.74, -187500.02, -182195.23, -187500.02, -187500.02, 0.00, 0.00, 0.00
135, -152999.67, -187500.02, -133747.73, -125542.50, -187500.02, -182011.45, -187500.02, -187500.02, 0.00, 0.91, 0.41
136, -152976.20, -187500.02, -133740.89, -125542.32, -187500.02, -182011.91, -187500.02, -187500.02, 0.00, 0.00, 0.00
137, -152202.09, -187500.02, -133548.20, -125641.79, -187500.02, -182193.28, -187500.02, -187500.02, 0.00, 0.00, 0.00
138, -152137.13, -187500.02, -133528.73, -125650.17, -187500.02, -182206.83, -187500.02, -187500.02, 0.00, 0.00, 0.00
139, -152907.78, -187500.02, -133718.88, -125554.02, -187500.02, -182026.41, -187500.02, -187500.02, 0.00, 0.00, 0.00
140, -153085.06, -187500.02, -133764.72, -125530.99, -187500.02, -181983.00, -187500.02, -187500.02, 0.00, 0.00, 0.00
141, -152336.16, -187500.02, -133580.44, -125629.23, -187500.02, -182161.81, -187500.02, -187500.02, 0.00, 0.00, 0.00
142, -152072.72, -187500.02, -133510.36, -125660.09, -187500.02, -182220.80, -187500.02, -187500.02, 0.00, 0.00, 0.00
143, -152775.86, -187500.02, -133680.69, -125567.60, -187500.02, -182053.77, -187500.02, -187500.02, 0.00, 0.00, 0.00
144, -153147.02, -187500.02, -133772.64, -125518.70, -187500.02, -181966.59, -187500.02, -187500.02, 0.00, 0.00, 0.00
145, -152467.77, -187500.02, -133605.78, -125603.77, -187500.02, -182127.33, -187500.02, -187500.02, 0.00, 0.91, 0.41
146, -152022.30, -187500.02, -133493.52, -125659.78, -187500.02, -182233.86, -187500.02, -187500.02, 0.00, 0.00, 0.00
147, -152614.67, -187500.02, -133634.30, -125579.18, -187500.02, -182093.28, -187500.02, -187500.02, 0.00, 0.00, 0.00
148, -153141.31, -187500.02, -133762.42, -125506.63, -187500.02, -181968.09, -187500.02, -187500.02, 0.00, 0.00, 0.00
149, -152590.97, -187500.02, -133626.14, -125573.75, -187500.02, -182099.55, -187500.02, -187500.02, 0.00, 0.00, 0.00
150, -151987.81, -187500.02, -133477.08, -125648.07, -187500.02, -182244.19, -187500.02, -187500.02, 0.00, 0.00, 0.00
151, -152432.56, -187500.02, -133580.55, -125584.14, -187500.02, -182138.84, -187500.02, -187500.02, 0.00, 0.00, 0.00
152, -153087.67, -187500.02, -133742.69, -125497.80, -187500.02, -181988.33, -187500.02, -187500.02, 0.00, 0.00, 0.00
153, -152698.81, -187500.02, -133648.45, -125544.40, -187500.02, -182083.31, -187500.02, -187500.02, 0.00, 0.00, 0.00
154, -151985.98, -187500.02, -133469.03, -125629.85, -187500.02, -182251.56, -187500.02, -187500.02, 0.00, 0.00, 0.00
155, -152254.58, -187500.02, -133531.02, -125590.42, -187500.02, -182189.89, -187500.02, -187500.02, 0.00, 0.90, 0.41
156, -152990.28, -187500.02, -133711.19, -125491.38, -187500.02, -182018.11, -187500.02, -187500.02, 0.00, 0.00, 0.00
157, -152792.30, -187500.02, -133664.02, -125511.84, -187500.02, -182066.06, -187500.02, -187500.02, 0.00, 0.00, 0.00
158, -152008.70, -187500.02, -133468.52, -125604.82, -187500.02, -182249.05, -187500.02, -187500.02, 0.00, 0.00, 0.00
159, -152091.56, -187500.02, -133484.38, -125591.85, -187500.02, -182233.16, -187500.02, -187500.02, 0.00, 0.00, 0.00
160, -152855.89, -187500.02, -133669.08, -125486.29, -187500.02, -182050.64, -187500.02, -187500.02, 0.00, 0.00, 0.00
161, -152866.41, -187500.02, -133672.80, -125480.05, -187500.02, -182048.09, -187500.02, -187500.02, 0.00, 0.00, 0.00
162, -152074.98, -187500.02, -133477.61, -125577.02, -187500.02, -182234.48, -187500.02, -187500.02, 0.00, 0.00, 0.00
163, -151954.34, -187500.02, -133443.83, -125588.99, -187500.02, -182262.73, -187500.02, -187500.02, 0.00, 0.00, 0.00
164, -152715.88, -187500.02, -133631.55, -125494.47, -187500.02, -182089.70, -187500.02, -187500.02, 0.00, 0.00, 0.00
165, -152930.36, -187500.02, -133687.28, -125465.01, -187500.02, -182039.23, -187500.02, -187500.02, -0.00, 0.90, 0.40
166, -152179.97, -187500.02, -133500.97, -125555.31, -187500.02, -182211.70, -187500.02, -187500.02, 0.00, 0.00, 0.00
167, -151872.91, -187500.02, -133420.63, -125590.11, -187500.02, -182279.50, -187500.02, -187500.02, 0.00, 0.00, 0.00
168, -152560.13, -187500.02, -133586.92, -125500.59, -187500.02, -182115.95, -187500.02, -187500.02, 0.00, 0.00, 0.00
169, -152969.55, -187500.02, -133687.77, -125446.34, -187500.02, -182016.47, -187500.02, -187500.02, 0.00, 0.00, 0.00
170, -152318.78, -187500.02, -133530.75, -125530.19, -187500.02, -182170.00, -187500.02, -187500.02, 0.00, 0.00, 0.00
171, -151847.00, -187500.02, -133415.55, -125594.09, -187500.02, -182283.97, -187500.02, -187500.02, 0.00, 0.00, 0.00
172, -152418.55, -187500.02, -133552.67, -125518.83, -187500.02, -182145.83, -187500.02, -187500.02, 0.00, 0.00, 0.00
173, -152980.72, -187500.02, -133689.36, -125441.72, -187500.02, -182006.50, -187500.02, -187500.02, 0.00, 0.00, 0.00
174, -152477.03, -187500.02, -133565.97, -125507.43, -187500.02, -182126.64, -187500.02, -187500.02, 0.00, 0.00, 0.00
175, -151854.59, -187500.02, -133409.98, -125583.32, -187500.02, -182268.95, -187500.02, -187500.02, -0.00, 0.90, 0.41
176, -152268.23, -187500.02, -133509.36, -125527.80, -187500.02, -182168.31, -187500.02, -187500.02, 0.00, 0.00, 0.00
177, -152945.03, -187500.02, -133676.14, -125437.13, -187500.02, -182004.14, -187500.02, -187500.02, 0.00, 0.00, 0.00
178, -152609.55, -187500.02, -133593.33, -125478.94, -187500.02, -182083.55, -187500.02, -187500.02, 0.00, 0.00, 0.00
179, -151899.20, -187500.02, -133416.86, -125572.56, -187500.02, -182255.97, -187500.02, -187500.02, 0.00, 0.00, 0.00
180, -152131.64, -187500.02, -133473.69, -125542.23, -187500.02, -182202.63, -187500.02, -187500.02, 0.00, 0.00, 0.00
181, -152873.48, -187500.02, -133656.70, -125441.56, -187500.02, -182023.56, -187500.02, -187500.02, 0.00, 0.00, 0.00
182, -152729.55, -187500.02, -133622.39, -125457.77, -187500.02, -182058.42, -187500.02, -187500.02, 0.00, 0.00, 0.00
183, -151960.45, -187500.02, -133431.78, -125556.72, -187500.02, -182244.61, -187500.02, -187500.02, 0.00, 0.00, 0.00
184, -151997.94, -187500.02, -133433.78, -125545.50, -187500.02, -182231.84, -187500.02, -187500.02, 0.00, 0.00, 0.00
185, -152754.25, -187500.02, -133619.50, -125441.80, -187500.02, -182048.81, -187500.02, -187500.02, -0.00, 0.90, 0.40
186, -152811.03, -187500.02, -133634.81, -125431.41, -187500.02, -182036.31, -187500.02, -187500.02, 0.00, 0.00, 0.00
187, -152032.84, -187500.02, -133437.39, -125524.11, -187500.02, -182217.86, -187500.02, -187500.02, 0.00, 0.00, 0.00
188, -151871.41, -187500.02, -133393.69, -125541.16, -187500.02, -182256.05, -187500.02, -187500.02, 0.00, 0.00, 0.00
189, -152604.56, -187500.02, -133575.41, -125445.41, -187500.02, -182084.48, -187500.02, -187500.02, 0.00, 0.00, 0.00
190, -152859.02, -187500.02, -133642.73, -125412.26, -187500.02, -182027.58, -187500.02, -187500.02, 0.00, 0.00, 0.00
191, -152138.84, -187500.02, -133463.42, -125503.41, -187500.02, -182201.52, -187500.02, -187500.02, 0.00, 0.00, 0.00
192, -151792.23, -187500.02, -133373.55, -125545.25, -187500.02, -182283.86, -187500.02, -187500.02, 0.00, 0.00, 0.00
193, -152442.41, -187500.02, -133532.42, -125457.66, -187500.02, -182127.73, -187500.02, -187500.02, 0.00, 0.00, 0.00
194, -152879.72, -187500.02, -133640.56, -125397.57, -187500.02, -182022.14, -187500.02, -187500.02, -0.00, 0.91, 0.41
195, -152259.25, -187500.02, -133487.50, -125475.73, -187500.02, -182170.95, -187500.02, -187500.02, 0.00, 0.00, 0.00
196, -151747.80, -187500.02, -133357.36, -125537.95, -187500.02, -182290.36, -187500.02, -187500.02, 0.00, 0.00, 0.00
197, -152276.16, -187500.02, -133485.69, -125465.99, -187500.02, -182161.70, -187500.02, -187500.02, 0.00, 0.00, 0.00
198, -152863.67, -187500.02, -133634.42, -125390.94, -187500.02, -182023.75, -187500.02, -187500.02, 0.00, 0.00, 0.00
199, -152396.20, -187500.02, -133517.14, -125450.34, -187500.02, -182136.31, -187500.02, -187500.02, 0.00, 0.00, 0.00
200, -151751.91, -187500.02, -133354.50, -125529.94, -187500.02, -182287.17, -187500.02, -187500.02, 0.00, 0.00, 0.00
201, -152120.14, -187500.02, -133442.44, -125477.48, -187500.02, -182194.81, -187500.02, -187500.02, 0.00, 0.00, 0.00
202, -152815.03, -187500.02, -133619.42, -125390.02, -187500.02, -182032.41, -187500.02, -187500.02, 0.00, 0.00, 0.00
203, -152521.73, -187500.02, -133546.03, -125425.94, -187500.02, -182101.94, -187500.02, -187500.02, 0.00, 0.00, 0.00
204, -151795.19, -187500.02, -133361.28, -125517.94, -187500.02, -182274.61, -187500.02, -187500.02, -0.00, 0.91, 0.42
205, -151981.11, -187500.02, -133405.33, -125491.45, -187500.02, -182228.47, -187500.02, -187500.02, 0.00, 0.00, 0.00
206, -152733.72, -187500.02, -133596.38, -125396.34, -187500.02, -182052.45, -187500.02, -187500.02, 0.00, 0.00, 0.00
207, -152636.84, -187500.02, -133573.33, -125407.45, -187500.02, -182076.19, -187500.02, -187500.02, 0.00, 0.00, 0.00
208, -151865.95, -187500.02, -133380.14, -125505.76, -187500.02, -182261.08, -187500.02, -187500.02, 0.00, 0.00, 0.00
209, -151861.03, -187500.02, -133374.13, -125502.47, -187500.02, -182259.56, -187500.02, -187500.02, 0.00, 0.00, 0.00
210, -152615.30, -187500.02, -133562.16, -125401.69, -187500.02, -182077.84, -187500.02, -187500.02, 0.00, 0.00, 0.00
211, -152718.09, -187500.02, -133587.78, -125384.92, -187500.02, -182052.31, -187500.02, -187500.02, 0.00, 0.00, 0.00
212, -151952.39, -187500.02, -133393.44, -125478.35, -187500.02, -182232.73, -187500.02, -187500.02, 0.00, 0.00, 0.00
213, -151751.55, -187500.02, -133342.09, -125503.50, -187500.02, -182282.63, -187500.02, -187500.02, 0.00, 0.00, 0.00
214, -152469.36, -187500.02, -133520.22, -125409.13, -187500.02, -182113.02, -187500.02, -187500.02, -0.00, 0.90, 0.41
215, -152761.73, -187500.02, -133594.66, -125367.33, -187500.02, -182043.47, -187500.02, -187500.02, 0.00, 0.00, 0.00
216, -152056.09, -187500.02, -133416.47, -125453.34, -187500.02, -182212.28, -187500.02, -187500.02, 0.00, 0.00, 0.00
217, -151668.45, -187500.02, -133316.55, -125499.61, -187500.02, -182306.00, -187500.02, -187500.02, 0.00, 0.00, 0.00
218, -152286.20, -187500.02, -133466.84, -125412.88, -187500.02, -182156.83, -187500.02, -187500.02, 0.00, 0.00, 0.00
219, -152752.20, -187500.02, -133582.89, -125348.04, -187500.02, -182046.86, -187500.02, -187500.02, 0.00, 0.00, 0.00
220, -152154.44, -187500.02, -133434.92, -125421.49, -187500.02, -182193.69, -187500.02, -187500.02, 0.00, 0.00, 0.00
221, -151601.75, -187500.02, -133293.53, -125486.02, -187500.02, -182325.75, -187500.02, -187500.02, 0.00, 0.00, 0.00
222, -152087.67, -187500.02, -133412.28, -125418.09, -187500.02, -182211.73, -187500.02, -187500.02, 0.00, 0.00, 0.00
223, -152686.69, -187500.02, -133561.45, -125334.09, -187500.02, -182069.38, -187500.02, -187500.02, 0.00, 0.00, 0.00
224, -152241.73, -187500.02, -133447.75, -125384.56, -187500.02, -182177.50, -187500.02, -187500.02, -0.00, 0.91, 0.41
225, -151563.95, -187500.02, -133277.88, -125467.49, -187500.02, -182343.42, -187500.02, -187500.02, 0.00, 0.00, 0.00
226, -151885.50, -187500.02, -133356.92, -125421.87, -187500.02, -182270.38, -187500.02, -187500.02, 0.00, 0.00, 0.00
227, -152582.33, -187500.02, -133531.84, -125326.90, -187500.02, -182106.08, -187500.02, -187500.02, 0.00, 0.00, 0.00
228, -152317.48, -187500.02, -133465.48, -125355.02, -187500.02, -182171.53, -187500.02, -187500.02, 0.00, 0.00, 0.00
229, -151565.08, -187500.02, -133273.92, -125445.80, -187500.02, -182352.78, -187500.02, -187500.02, 0.00, 0.00, 0.00
230, -151694.95, -187500.02, -133299.92, -125417.47, -187500.02, -182315.81, -187500.02, -187500.02, 0.00, 0.00, 0.00
231, -152439.27, -187500.02, -133484.08, -125312.95, -187500.02, -182134.86, -187500.02, -187500.02, 0.00, 0.00, 0.00
232, -152379.81, -187500.02, -133472.45, -125319.09, -187500.02, -182153.33, -187500.02, -187500.02, 0.00, 0.00, 0.00
233, -151600.25, -187500.02, -133277.72, -125417.18, -187500.02, -182341.81, -187500.02, -187500.02, 0.00, 0.00, 0.00
234, -151551.53, -187500.02, -133260.45, -125418.56, -187500.02, -182350.31, -187500.02, -187500.02, 0.00, 0.91, 0.41
235, -152298.33, -187500.02, -133443.69, -125314.34, -187500.02, -182163.83, -187500.02, -187500.02, 0.00, 0.00, 0.00
236, -152445.80, -187500.02, -133482.06, -125293.10, -187500.02, -182126.17, -187500.02, -187500.02, 0.00, 0.00, 0.00
237, -151698.20, -187500.02, -133297.19, -125392.48, -187500.02, -182306.95, -187500.02, -187500.02, 0.00, 0.00, 0.00
238, -151462.09, -187500.02, -133235.77, -125423.59, -187500.02, -182359.30, -187500.02, -187500.02, 0.00, 0.00, 0.00
239, -152170.77, -187500.02, -133408.14, -125328.26, -187500.02, -182179.66, -187500.02, -187500.02, 0.00, 0.00, 0.00
240, -152515.72, -187500.02, -133497.88, -125284.56, -187500.02, -182092.48, -187500.02, -187500.02, 0.00, 0.00, 0.00
241, -151841.30, -187500.02, -133329.81, -125370.17, -187500.02, -182248.27, -187500.02, -187500.02, 0.00, 0.00, 0.00
242, -151426.84, -187500.02, -133222.56, -125419.86, -187500.02, -182338.28, -187500.02, -187500.02, 0.00, 0.00, 0.00
243, -152038.70, -187500.02, -133374.02, -125341.11, -187500.02, -182186.98, -187500.02, -187500.02, 0.00, 0.00, 0.00
244, -152558.30, -187500.02, -133507.05, -125277.88, -187500.02, -182062.08, -187500.02, -187500.02, -0.00, 0.91, 0.41
245, -152003.97, -187500.02, -133371.31, -125350.16, -187500.02, -182192.77, -187500.02, -187500.02, 0.00, 0.00, 0.00
246, -151436.80, -187500.02, -133228.91, -125422.20, -187500.02, -182325.00, -187500.02, -187500.02, 0.00, 0.00, 0.00
247, -151903.30, -187500.02, -133341.31, -125358.21, -187500.02, -182207.91, -187500.02, -187500.02, 0.00, 0.00, 0.00
248, -152542.47, -187500.02, -133501.06, -125273.56, -187500.02, -182052.19, -187500.02, -187500.02, 0.00, 0.00, 0.00
249, -152147.73, -187500.02, -133402.25, -125323.12, -187500.02, -182146.86, -187500.02, -187500.02, 0.00, 0.00, 0.00
250, -151461.09, -187500.02, -133232.75, -125412.52, -187500.02, -182314.70, -187500.02, -187500.02, 0.00, 0.00, 0.00
251, -151752.84, -187500.02, -133303.98, -125372.41, -187500.02, -182245.67, -187500.02, -187500.02, 0.00, 0.00, 0.00
252, -152470.97, -187500.02, -133482.64, -125274.84, -187500.02, -182072.81, -187500.02, -187500.02, 0.00, 0.00, 0.00
253, -152253.53, -187500.02, -133428.16, -125297.93, -187500.02, -182125.34, -187500.02, -187500.02, 0.00, 0.00, 0.00
254, -151493.70, -187500.02, -133235.48, -125390.98, -187500.02, -182308.08, -187500.02, -187500.02, 0.00, 0.91, 0.41
255, -151589.73, -187500.02, -133256.78, -125373.16, -187500.02, -182285.48, -187500.02, -187500.02, 0.00, 0.00, 0.00
0, -152339.11, -187500.02, -133440.89, -125266.80, -187500.02, -182102.14, -187500.02, -187500.02, 0.00, 0.00, 0.00
1, -152320.66, -187500.02, -133436.42, -125262.26, -187500.02, -182105.94, -187500.02, -187500.02, 0.00, 0.00, 0.00
2, -151538.03, -187500.02, -133241.03, -125358.32, -187500.02, -182294.89, -187500.02, -187500.02, 0.00, 0.00, 0.00
3, -151449.92, -187500.02, -133217.28, -125368.00, -187500.02, -182320.17, -187500.02, -187500.02, 0.00, 0.00, 0.00
4, -152197.63, -187500.02, -133405.23, -125269.92, -187500.02, -182144.67, -187500.02, -187500.02, 0.00, 0.00, 0.00
5, -152386.41, -187500.02, -133454.39, -125241.80, -187500.02, -182099.72, -187500.02, -187500.02, 0.00, 0.00, 0.00
6, -151636.75, -187500.02, -133265.50, -125331.05, -187500.02, -182274.84, -187500.02, -187500.02, 0.00, 0.00, 0.00
7, -151353.64, -187500.02, -133192.39, -125364.16, -187500.02, -182340.09, -187500.02, -187500.02, 0.00, 0.00, 0.00
8, -152049.33, -187500.02, -133365.95, -125276.77, -187500.02, -182176.23, -187500.02, -187500.02, -0.00, 0.90, 0.41
9, -152432.72, -187500.02, -133466.64, -125229.66, -187500.02, -182086.11, -187500.02, -187500.02, 0.00, 0.00, 0.00
10, -151772.81, -187500.02, -133301.89, -125310.83, -187500.02, -182238.66, -187500.02, -187500.02, 0.00, 0.00, 0.00
11, -151321.33, -187500.02, -133186.55, -125367.06, -187500.02, -182341.86, -187500.02, -187500.02, 0.00, 0.00, 0.00
12, -151907.45, -187500.02, -133328.20, -125288.88, -187500.02, -182196.17, -187500.02, -187500.02, 0.00, 0.00, 0.00
13, -152457.59, -187500.02, -133466.27, -125219.27, -187500.02, -182062.84, -187500.02, -187500.02, 0.00, 0.00, 0.00
14, -151931.97, -187500.02, -133337.81, -125287.29, -187500.02, -182186.06, -187500.02, -187500.02, 0.00, 0.00, 0.00
15, -151337.42, -187500.02, -133189.89, -125365.43, -187500.02, -182326.41, -187500.02, -187500.02, 0.00, 0.00, 0.00
16, -151782.41, -187500.02, -133298.84, -125311.16, -187500.02, -182220.52, -187500.02, -187500.02, 0.00, 0.00, 0.00
17, -152458.61, -187500.02, -133469.73, -125228.46, -187500.02, -182061.19, -187500.02, -187500.02, 0.00, 0.91, 0.41
18, -152107.34, -187500.02, -133383.84, -125275.94, -187500.02, -182145.97, -187500.02, -187500.02, 0.00, 0.00, 0.00
19, -151402.08, -187500.02, -133209.31, -125367.69, -187500.02, -182313.83, -187500.02, -187500.02, 0.00, 0.00, 0.00
20, -151666.86, -187500.02, -133273.61, -125335.15, -187500.02, -182251.02, -187500.02, -187500.02, 0.00, 0.00, 0.00
21, -152416.94, -187500.02, -133461.64, -125240.87, -187500.02, -182073.38, -187500.02, -187500.02, 0.00, 0.00, 0.00
22, -152252.45, -187500.02, -133422.75, -125262.46, -187500.02, -182111.97, -187500.02, -187500.02, 0.00, 0.00, 0.00
23, -151488.88, -187500.02, -133229.95, -125358.50, -187500.02, -182290.25, -187500.02, -187500.02, 0.00, 0.00, 0.00
24, -151561.56, -187500.02, -133246.30, -125351.08, -187500.02, -182272.77, -187500.02, -187500.02, 0.00, 0.00, 0.00
25, -152340.44, -187500.02, -133441.09, -125253.67, -187500.02, -182087.66, -187500.02, -187500.02, 0.00, 0.00, 0.00
26, -152378.70, -187500.02, -133451.36, -125246.52, -187500.02, -182072.97, -187500.02, -187500.02, 0.00, 0.00, 0.00
27, -151603.86, -187500.02, -133257.31, -125343.23, -187500.02, -182250.84, -187500.02, -187500.02, -0.00, 0.91, 0.41
28, -151487.94, -187500.02, -133224.03, -125360.00, -187500.02, -182275.16, -187500.02, -187500.02, 0.00, 0.00, 0.00
29, -152250.73, -187500.02, -133412.80, -125266.19, -187500.02, -182092.33, -187500.02, -187500.02, 0.00, 0.00, 0.00
30, -152501.39, -187500.02, -133478.89, -125238.81, -187500.02, -182030.80, -187500.02, -187500.02, 0.00, 0.00, 0.00
31, -151777.39, -187500.02, -133301.03, -125336.38, -187500.02, -182199.66, -187500.02, -187500.02, 0.00, 0.00, 0.00
32, -151471.08, -187500.02, -133223.36, -125381.41, -187500.02, -182269.13, -187500.02, -187500.02, 0.00, 0.00, 0.00
33, -152170.20, -187500.02, -133395.67, -125299.65, -187500.02, -182102.58, -187500.02, -187500.02, 0.00, 0.00, 0.00
34, -152605.22, -187500.02, -133507.81, -125249.47, -187500.02, -181996.77, -187500.02, -187500.02, 0.00, 0.00, 0.00
35, -151976.20, -187500.02, -133355.53, -125333.65, -187500.02, -182143.11, -187500.02, -187500.02, 0.00, 0.00, 0.00
36, -151496.23, -187500.02, -133233.64, -125395.20, -187500.02, -182250.13, -187500.02, -187500.02, 0.00, 0.00, 0.00
37, -152070.47, -187500.02, -133373.61, -125325.34, -187500.02, -182111.25, -187500.02, -187500.02, 0.00, 0.91, 0.41
38, -152661.31, -187500.02, -133521.52, -125253.29, -187500.02, -181968.66, -187500.02, -187500.02, 0.00, 0.00, 0.00
39, -152169.42, -187500.02, -133403.14, -125318.38, -187500.02, -182082.89, -187500.02, -187500.02, 0.00, 0.00, 0.00
40, -151549.16, -187500.02, -133248.41, -125399.45, -187500.02, -182227.38, -187500.02, -187500.02, 0.00, 0.00, 0.00
41, -151966.00, -187500.02, -133348.14, -125349.77, -187500.02, -182128.44, -187500.02, -187500.02, 0.00, 0.00, 0.00
42, -152665.78, -187500.02, -133522.09, -125262.52, -187500.02, -181960.81, -187500.02, -187500.02, 0.00, 0.00, 0.00
43, -152354.92, -187500.02, -133447.80, -125305.84, -187500.02, -182035.03, -187500.02, -187500.02, 0.00, 0.00, 0.00
44, -151631.77, -187500.02, -133267.05, -125396.99, -187500.02, -182201.83, -187500.02, -187500.02, 0.00, 0.00, 0.00
45, -151860.78, -187500.02, -133319.45, -125367.63, -187500.02, -182144.11, -187500.02, -187500.02, 0.00, 0.00, 0.00
46, -152628.13, -187500.02, -133510.45, -125272.85, -187500.02, -181962.17, -187500.02, -187500.02, 0.00, 0.00, 0.00
47, -152514.03, -187500.02, -133485.00, -125291.23, -187500.02, -181989.44, -187500.02, -187500.02, 0.00, 0.91, 0.41
48, -151752.16, -187500.02, -133293.55, -125390.16, -187500.02, -182167.41, -187500.02, -187500.02, 0.00, 0.00, 0.00
49, -151787.58, -187500.02, -133298.67, -125386.94, -187500.02, -182155.02, -187500.02, -187500.02, 0.00, 0.00, 0.00
50, -152575.73, -187500.02, -133498.56, -125294.91, -187500.02, -181971.52, -187500.02, -187500.02, 0.00, 0.00, 0.00
51, -152673.09, -187500.02, -133526.98, -125287.54, -187500.02, -181947.39, -187500.02, -187500.02, 0.00, 0.00, 0.00
52, -151920.38, -187500.02, -133340.94, -125387.16, -187500.02, -182123.44, -187500.02, -187500.02, 0.00, 0.00, 0.00
53, -151774.42, -187500.02, -133302.61, -125412.13, -187500.02, -182157.45, -187500.02, -187500.02, 0.00, 0.00, 0.00
54, -152524.77, -187500.02, -133487.11, -125317.71, -187500.02, -181973.19, -187500.02, -187500.02, 0.00, 0.00, 0.00
55, -152817.19, -187500.02, -133561.25, -125282.17, -187500.02, -181897.08, -187500.02, -187500.02, 0.00, 0.00, 0.00
56, -152123.48, -187500.02, -133390.38, -125376.63, -187500.02, -182059.44, -187500.02, -187500.02, 0.00, 0.00, 0.00
57, -151785.38, -187500.02, -133305.05, -125425.60, -187500.02, -182136.06, -187500.02, -187500.02, 0.00, 0.91, 0.40
58, -152457.16, -187500.02, -133472.45, -125348.45, -187500.02, -181976.52, -187500.02, -187500.02, 0.00, 0.00, 0.00
59, -152928.91, -187500.02, -133590.78, -125290.89, -187500.02, -181857.19, -187500.02, -187500.02, 0.00, 0.00, 0.00
60, -152344.08, -187500.02, -133444.89, -125369.52, -187500.02, -181990.28, -187500.02, -187500.02, 0.00, 0.00, 0.00
61, -151842.23, -187500.02, -133316.86, -125437.90, -187500.02, -182103.05, -187500.02, -187500.02, 0.00, 0.00, 0.00
62, -152381.42, -187500.02, -133449.77, -125374.41, -187500.02, -181970.73, -187500.02, -187500.02, 0.00, 0.00, 0.00
63, -153011.75, -187500.02, -133613.03, -125307.16, -187500.02, -181825.20, -187500.02, -187500.02, 0.00, 0.00, 0.00
64, -152579.19, -187500.02, -133508.13, -125371.02, -187500.02, -181926.75, -187500.02, -187500.02, 0.00, 0.00, 0.00
65, -151949.75, -187500.02, -133348.41, -125455.69, -187500.02, -182069.50, -187500.02, -187500.02, 0.00, 0.00, 0.00
66, -152330.91, -187500.02, -133440.36, -125412.77, -187500.02, -181974.64, -187500.02, -187500.02, 0.00, 0.00, 0.00
67, -153055.83, -187500.02, -133623.08, -125327.44, -187500.02, -181800.41, -187500.02, -187500.02, 0.00, 0.91, 0.41
68, -152810.98, -187500.02, -133565.61, -125369.97, -187500.02, -181860.69, -187500.02, -187500.02, 0.00, 0.00, 0.00
69, -152097.84, -187500.02, -133389.55, -125470.66, -187500.02, -182030.13, -187500.02, -187500.02, 0.00, 0.00, 0.00
70, -152290.08, -187500.02, -133436.48, -125452.47, -187500.02, -181982.72, -187500.02, -187500.02, 0.00, 0.00, 0.00
71, -153067.00, -187500.02, -133632.45, -125360.18, -187500.02, -181798.69, -187500.02, -187500.02, 0.00, 0.00, 0.00
72, -153008.84, -187500.02, -133620.94, -125375.49, -187500.02, -181814.09, -187500.02, -187500.02, 0.00, 0.00, 0.00
73, -152256.17, -187500.02, -133430.55, -125476.32, -187500.02, -181990.59, -187500.02, -187500.02, 0.00, 0.00, 0.00
74, -152250.59, -187500.02, -133427.61, -125482.16, -187500.02, -181990.56, -187500.02, -187500.02, 0.00, 0.00, 0.00
75, -153022.92, -187500.02, -133621.86, -125387.70, -187500.02, -181805.80, -187500.02, -187500.02, 0.00, 0.00, 0.00
76, -153166.16, -187500.02, -133660.72, -125375.18, -187500.02, -181771.05, -187500.02, -187500.02, 0.00, 0.00, 0.00
77, -152427.17, -187500.02, -133475.03, -125473.66, -187500.02, -181942.81, -187500.02, -187500.02, 0.00, 0.91, 0.40
78, -152231.78, -187500.02, -133421.92, -125502.80, -187500.02, -181985.02, -187500.02, -187500.02, 0.00, 0.00, 0.00
79, -152961.25, -187500.02, -133604.59, -125414.36, -187500.02, -181810.17, -187500.02, -187500.02, 0.00, 0.00, 0.00
80, -153298.23, -187500.02, -133693.17, -125377.30, -187500.02, -181729.17, -187500.02, -187500.02, 0.00, 0.00, 0.00
81, -152631.19, -187500.02, -133528.89, -125470.66, -187500.02, -181887.67, -187500.02, -187500.02, 0.00, 0.00, 0.00
82, -152257.75, -187500.02, -133434.86, -125525.18, -187500.02, -181974.48, -187500.02, -187500.02, 0.00, 0.00, 0.00
83, -152896.67, -187500.02, -133591.77, -125446.68, -187500.02, -181819.80, -187500.02, -187500.02, 0.00, 0.00, 0.00
84, -153397.16, -187500.02, -133716.83, -125382.64, -187500.02, -181695.52, -187500.02, -187500.02, 0.00, 0.00, 0.00
85, -152840.58, -187500.02, -133578.69, -125457.41, -187500.02, -181826.34, -187500.02, -187500.02, 0.00, 0.00, 0.00
86, -152298.77, -187500.02, -133441.19, -125528.55, -187500.02, -181953.03, -187500.02, -187500.02, 0.00, 0.00, 0.00
87, -152785.95, -187500.02, -133561.23, -125466.30, -187500.02, -181838.50, -187500.02, -187500.02, 0.00, 0.90, 0.40
88, -153407.44, -187500.02, -133715.08, -125383.31, -187500.02, -181691.16, -187500.02, -187500.02, 0.00, 0.00, 0.00
89, -152983.30, -187500.02, -133605.94, -125431.70, -187500.02, -181790.95, -187500.02, -187500.02, 0.00, 0.00, 0.00
90, -152305.50, -187500.02, -133433.20, -125514.72, -187500.02, -181954.84, -187500.02, -187500.02, 0.00, 0.00, 0.00
91, -152615.03, -187500.02, -133509.30, -125474.69, -187500.02, -181890.89, -187500.02, -187500.02, 0.00, 0.00, 0.00
92, -153313.05, -187500.02, -133682.81, -125379.18, -187500.02, -181730.31, -187500.02, -187500.02, 0.00, 0.00, 0.00
93, -153071.69, -187500.02, -133622.17, -125407.59, -187500.02, -181796.56, -187500.02, -187500.02, 0.00, 0.00, 0.00
94, -152311.05, -187500.02, -133429.27, -125500.37, -187500.02, -181983.25, -187500.02, -187500.02, 0.00, 0.00, 0.00
95, -152420.50, -187500.02, -133452.38, -125479.31, -187500.02, -181961.44, -187500.02, -187500.02, 0.00, 0.00, 0.00
96, -153159.09, -187500.02, -133635.17, -125377.39, -187500.02, -181790.78, -187500.02, -187500.02, 0.00, 0.00, 0.00
97, -153109.13, -187500.02, -133620.41, -125375.76, -187500.02, -181806.31, -187500.02, -187500.02, -0.00, 0.91, 0.41
98, -152325.61, -187500.02, -133420.11, -125470.22, -187500.02, -181997.64, -187500.02, -187500.02, 0.00, 0.00, 0.00
99, -152245.30, -187500.02, -133399.47, -125478.15, -187500.02, -182025.61, -187500.02, -187500.02, 0.00, 0.00, 0.00
100, -152975.20, -187500.02, -133581.83, -125377.50, -187500.02, -181856.33, -187500.02, -187500.02, 0.00, 0.00, 0.00
101, -153123.81, -187500.02, -133616.63, -125349.43, -187500.02, -181821.73, -187500.02, -187500.02, 0.00, 0.00, 0.00
102, -152361.27, -187500.02, -133423.34, -125446.19, -187500.02, -182010.05, -187500.02, -187500.02, 0.00, 0.00, 0.00
103, -152081.39, -187500.02, -133347.28, -125483.36, -187500.02, -182083.08, -187500.02, -187500.02, 0.00, 0.00, 0.00
104, -152745.09, -187500.02, -133508.00, -125389.51, -187500.02, -181925.52, -187500.02, -187500.02, 0.00, 0.00, 0.00
105, -153077.89, -187500.02, -133592.34, -125338.41, -187500.02, -181850.23, -187500.02, -187500.02, 0.00, 0.00, 0.00
106, -152391.13, -187500.02, -133418.47, -125418.52, -187500.02, -182017.67, -187500.02, -187500.02, -0.01, 0.90, 0.41
107, -151937.14, -187500.02, -133298.17, -125465.75, -187500.02, -182124.84, -187500.02, -187500.02, 0.00, 0.00, 0.00
108, -152509.81, -187500.02, -133433.63, -125380.81, -187500.02, -181986.64, -187500.02, -187500.02, 0.00, 0.00, 0.00
109, -153012.89, -187500.02, -133559.48, -125309.73, -187500.02, -181869.97, -187500.02, -187500.02, 0.00, 0.00, 0.00
110, -152454.53, -187500.02, -133419.72, -125375.65, -187500.02, -182007.14, -187500.02, -187500.02, 0.00, 0.00, 0.00
111, -151857.97, -187500.02, -133265.66, -125443.91, -187500.02, -182149.44, -187500.02, -187500.02, 0.00, 0.00, 0.00
112, -152295.89, -187500.02, -133370.64, -125381.34, -187500.02, -182047.28, -187500.02, -187500.02, 0.00, 0.00, 0.00
113, -152935.14, -187500.02, -133529.34, -125294.46, -187500.02, -181897.81, -187500.02, -187500.02, 0.00, 0.00, 0.00
114, -152543.72, -187500.02, -133431.48, -125339.68, -187500.02, -181992.44, -187500.02, -187500.02, 0.00, 0.00, 0.00
115, -151839.84, -187500.02, -133253.73, -125425.24, -187500.02, -182160.09, -187500.02, -187500.02, 0.00, 0.00, 0.00
116, -152116.78, -187500.02, -133319.09, -125387.23, -187500.02, -182096.23, -187500.02, -187500.02, 0.00, 0.90, 0.41
117, -152845.05, -187500.02, -133499.70, -125289.75, -187500.02, -181922.47, -187500.02, -187500.02, 0.00, 0.00, 0.00
118, -152652.06, -187500.02, -133452.36, -125312.23, -187500.02, -181968.78, -187500.02, -187500.02, 0.00, 0.00, 0.00
119, -151890.36, -187500.02, -133263.63, -125410.38, -187500.02, -182152.27, -187500.02, -187500.02, 0.00, 0.00, 0.00
120, -151983.50, -187500.02, -133286.06, -125400.26, -187500.02, -182132.94, -187500.02, -187500.02, 0.00, 0.00, 0.00
121, -152752.44, -187500.02, -133475.88, -125299.09, -187500.02, -181947.03, -187500.02, -187500.02, 0.00, 0.00, 0.00
122, -152765.88, -187500.02, -133481.63, -125296.41, -187500.02, -181941.36, -187500.02, -187500.02, 0.00, 0.00, 0.00
123, -151997.16, -187500.02, -133289.39, -125394.16, -187500.02, -182120.44, -187500.02, -187500.02, 0.00, 0.00, 0.00
124, -151898.52, -187500.02, -133259.78, -125403.97, -187500.02, -182137.19, -187500.02, -187500.02, 0.00, 0.00, 0.00
125, -152659.80, -187500.02, -133448.16, -125306.38, -187500.02, -181952.77, -187500.02, -187500.02, 0.00, 0.00, 0.00
126, -152882.73, -187500.02, -133506.45, -125277.86, -187500.02, -181896.02, -187500.02, -187500.02, -0.01, 0.90, 0.41
127, -152153.95, -187500.02, -133326.30, -125369.61, -187500.02, -182063.94, -187500.02, -187500.02, 0.00, 0.00, 0.00
128, -151878.11, -187500.02, -133257.09, -125407.70, -187500.02, -182130.20, -187500.02, -187500.02, 0.00, 0.00, 0.00
129, -152577.47, -187500.02, -133430.08, -125316.93, -187500.02, -181963.48, -187500.02, -187500.02, 0.00, 0.00, 0.00
130, -152977.97, -187500.02, -133531.02, -125258.14, -187500.02, -181861.86, -187500.02, -187500.02, 0.00, 0.00, 0.00
131, -152330.06, -187500.02, -133371.69, -125336.82, -187500.02, -182012.34, -187500.02, -187500.02, 0.00, 0.00, 0.00
132, -151868.13, -187500.02, -133255.78, -125395.54, -187500.02, -182122.03, -187500.02, -187500.02, 0.00, 0.00, 0.00
133, -152453.28, -187500.02, -133397.91, -125323.03, -187500.02, -181986.69, -187500.02, -187500.02, 0.00, 0.00, 0.00
134, -153015.36, -187500.02, -133540.34, -125253.38, -187500.02, -181856.61, -187500.02, -187500.02, 0.00, 0.00, 0.00
135, -152498.92, -187500.02, -133417.36, -125322.16, -187500.02, -181983.67, -187500.02, -187500.02, 0.00, 0.00, 0.00
136, -151880.95, -187500.02, -133259.89, -125396.92, -187500.02, -182128.31, -187500.02, -187500.02, -0.00, 0.90, 0.41
137, -152298.50, -187500.02, -133356.22, -125338.66, -187500.02, -182029.27, -187500.02, -187500.02, 0.00, 0.00, 0.00
138, -152973.03, -187500.02, -133522.92, -125250.92, -187500.02, -181874.08, -187500.02, -187500.02, 0.00, 0.00, 0.00
139, -152614.78, -187500.02, -133435.23, -125292.52, -187500.02, -181960.67, -187500.02, -187500.02, 0.00, 0.00, 0.00
140, -151882.88, -187500.02, -133251.39, -125380.36, -187500.02, -182134.34, -187500.02, -187500.02, 0.00, 0.00, 0.00
141, -152120.06, -187500.02, -133304.72, -125346.77, -187500.02, -182081.95, -187500.02, -187500.02, 0.00, 0.00, 0.00
142, -152857.92, -187500.02, -133483.89, -125245.00, -187500.02, -181907.08, -187500.02, -187500.02, 0.00, 0.00, 0.00
143, -152696.05, -187500.02, -133445.30, -125262.44, -187500.02, -181949.86, -187500.02, -187500.02, 0.00, 0.00, 0.00
144, -151908.42, -187500.02, -133251.17, -125361.56, -187500.02, -182143.20, -187500.02, -187500.02, 0.00, 0.00, 0.00
145, -151944.83, -187500.02, -133256.47, -125353.74, -187500.02, -182140.45, -187500.02, -187500.02, 0.00, 0.00, 0.00
146, -152701.23, -187500.02, -133437.27, -125245.91, -187500.02, -181958.97, -187500.02, -187500.02, -0.00, 0.91, 0.41
147, -152737.88, -187500.02, -133448.00, -125235.23, -187500.02, -181953.20, -187500.02, -187500.02, 0.00, 0.00, 0.00
148, -151942.92, -187500.02, -133249.89, -125330.95, -187500.02, -182144.94, -187500.02, -187500.02, 0.00, 0.00, 0.00
149, -151780.88, -187500.02, -133205.66, -125348.22, -187500.02, -182189.75, -187500.02, -187500.02, 0.00, 0.00, 0.00
150, -152511.20, -187500.02, -133384.64, -125250.77, -187500.02, -182023.70, -187500.02, -187500.02, 0.00, 0.00, 0.00
151, -152744.44, -187500.02, -133442.56, -125212.59, -187500.02, -181970.44, -187500.02, -187500.02, 0.00, 0.00, 0.00
152, -151990.20, -187500.02, -133254.70, -125299.54, -187500.02, -182150.95, -187500.02, -187500.02, 0.00, 0.00, 0.00
153, -151630.66, -187500.02, -133157.05, -125334.05, -187500.02, -182235.91, -187500.02, -187500.02, 0.00, 0.00, 0.00
154, -152275.91, -187500.02, -133309.20, -125240.06, -187500.02, -182083.58, -187500.02, -187500.02, 0.00, 0.00, 0.00
155, -152686.19, -187500.02, -133411.09, -125177.72, -187500.02, -181988.44, -187500.02, -187500.02, 0.00, 0.00, 0.00
156, -152028.33, -187500.02, -133246.20, -125250.01, -187500.02, -182145.16, -187500.02, -187500.02, 0.00, 0.91, 0.41
157, -151497.41, -187500.02, -133108.56, -125307.14, -187500.02, -182272.69, -187500.02, -187500.02, 0.00, 0.00, 0.00
158, -152026.72, -187500.02, -133233.20, -125231.95, -187500.02, -182152.00, -187500.02, -187500.02, 0.00, 0.00, 0.00
159, -152596.45, -187500.02, -133376.14, -125153.42, -187500.02, -182022.30, -187500.02, -187500.02, 0.00, 0.00, 0.00
160, -152086.34, -187500.02, -133250.52, -125209.15, -187500.02, -182143.89, -187500.02, -187500.02, 0.00, 0.00, 0.00
161, -151425.27, -187500.02, -133081.25, -125284.41, -187500.02, -182299.64, -187500.02, -187500.02, 0.00, 0.00, 0.00
162, -151801.00, -187500.02, -133167.95, -125231.14, -187500.02, -182212.11, -187500.02, -187500.02, 0.00, 0.00, 0.00
163, -152496.06, -187500.02, -133340.72, -125140.62, -187500.02, -182050.61, -187500.02, -187500.02, 0.00, 0.00, 0.00
164, -152185.67, -187500.02, -133269.45, -125181.50, -187500.02, -182129.55, -187500.02, -187500.02, 0.00, 0.00, 0.00
165, -151443.28, -187500.02, -133085.86, -125274.30, -187500.02, -182305.63, -187500.02, -187500.02, 0.00, 0.00, 0.00
166, -151648.84, -187500.02, -133132.27, -125246.92, -187500.02, -182255.38, -187500.02, -187500.02, 0.00, 0.91, 0.41
167, -152412.11, -187500.02, -133320.38, -125147.62, -187500.02, -182069.80, -187500.02, -187500.02, 0.00, 0.00, 0.00
168, -152312.98, -187500.02, -133298.58, -125161.83, -187500.02, -182091.05, -187500.02, -187500.02, 0.00, 0.00, 0.00
169, -151540.23, -187500.02, -133106.78, -125261.67, -187500.02, -182270.84, -187500.02, -187500.02, 0.00, 0.00, 0.00
170, -151554.50, -187500.02, -133107.55, -125262.05, -187500.02, -182263.38, -187500.02, -187500.02, 0.00, 0.00, 0.00
171, -152337.50, -187500.02, -133300.91, -125163.23, -187500.02, -182071.11, -187500.02, -187500.02, 0.00, 0.00, 0.00
172, -152445.00, -187500.02, -133326.61, -125145.22, -187500.02, -182032.09, -187500.02, -187500.02, 0.00, 0.00, 0.00
173, -151695.16, -187500.02, -133140.98, -125245.34, -187500.02, -182205.95, -187500.02, -187500.02, 0.00, 0.00, 0.00
174, -151529.31, -187500.02, -133100.25, -125275.53, -187500.02, -182245.44, -187500.02, -187500.02, 0.00, 0.00, 0.00
175, -152279.13, -187500.02, -133286.00, -125182.37, -187500.02, -182060.86, -187500.02, -187500.02, 0.00, 0.00, 0.00
176, -152594.39, -187500.02, -133367.31, -125145.31, -187500.02, -181979.56, -187500.02, -187500.02, 0.00, 0.91, 0.41
177, -151903.20, -187500.02, -133197.89, -125238.59, -187500.02, -182140.88, -187500.02, -187500.02, 0.00, 0.00, 0.00
178, -151543.80, -187500.02, -133105.22, -125287.91, -187500.02, -182223.31, -187500.02, -187500.02, 0.00, 0.00, 0.00
179, -152193.97, -187500.02, -133261.50, -125203.43, -187500.02, -182062.13, -187500.02, -187500.02, 0.00, 0.00, 0.00
180, -152675.06, -187500.02, -133384.19, -125143.45, -187500.02, -181944.95, -187500.02, -187500.02, 0.00, 0.00, 0.00
181, -152090.03, -187500.02, -133241.30, -125221.98, -187500.02, -182085.17, -187500.02, -187500.02, 0.00, 0.00, 0.00
182, -151562.13, -187500.02, -133106.91, -125290.71, -187500.02, -182210.19, -187500.02, -187500.02, 0.00, 0.00, 0.00
183, -152082.00, -187500.02, -133231.30, -125224.95, -187500.02, -182087.00, -187500.02, -187500.02, 0.00, 0.00, 0.00
184, -152698.66, -187500.02, -133385.64, -125145.87, -187500.02, -181939.86, -187500.02, -187500.02, 0.00, 0.00, 0.00
185, -152256.33, -187500.02, -133277.80, -125202.53, -187500.02, -182045.94, -187500.02, -187500.02, 0.00, 0.91, 0.41
186, -151598.27, -187500.02, -133109.97, -125285.57, -187500.02, -182202.31, -187500.02, -187500.02, 0.00, 0.00, 0.00
187, -151947.69, -187500.02, -133191.22, -125239.86, -187500.02, -182119.80, -187500.02, -187500.02, 0.00, 0.00, 0.00
188, -152663.30, -187500.02, -133367.17, -125145.67, -187500.02, -181948.58, -187500.02, -187500.02, 0.00, 0.00, 0.00
189, -152408.53, -187500.02, -133307.63, -125181.19, -187500.02, -182014.66, -187500.02, -187500.02, 0.00, 0.00, 0.00
190, -151664.61, -187500.02, -133122.05, -125276.61, -187500.02, -182194.41, -187500.02, -187500.02, 0.00, 0.00, 0.00
191, -151820.78, -187500.02, -133154.28, -125253.45, -187500.02, -182155.47, -187500.02, -187500.02, 0.00, 0.00, 0.00
192, -152586.77, -187500.02, -133344.38, -125155.05, -187500.02, -181973.75, -187500.02, -187500.02, 0.00, 0.00, 0.00
193, -152538.88, -187500.02, -133335.44, -125164.65, -187500.02, -181990.27, -187500.02, -187500.02, 0.00, 0.00, 0.00
194, -151768.92, -187500.02, -133143.61, -125266.46, -187500.02, -182178.31, -187500.02, -187500.02, 0.00, 0.00, 0.00
195, -151730.47, -187500.02, -133129.94, -125269.99, -187500.02, -182186.30, -187500.02, -187500.02, 0.00, 0.91, 0.41
196, -152491.38, -187500.02, -133316.33, -125168.67, -187500.02, -182001.36, -187500.02, -187500.02, 0.00, 0.00, 0.00
197, -152638.38, -187500.02, -133354.13, -125148.55, -187500.02, -181965.23, -187500.02, -187500.02, 0.00, 0.00, 0.00
198, -151890.42, -187500.02, -133165.97, -125244.91, -187500.02, -182144.88, -187500.02, -187500.02, 0.00, 0.00, 0.00
199, -151664.89, -187500.02, -133106.41, -125275.60, -187500.02, -182200.59, -187500.02, -187500.02, 0.00, 0.00, 0.00
200, -152373.48, -187500.02, -133280.91, -125182.30, -187500.02, -182029.19, -187500.02, -187500.02, 0.00, 0.00, 0.00
201, -152712.61, -187500.02, -133368.94, -125139.66, -187500.02, -181949.30, -187500.02, -187500.02, 0.00, 0.00, 0.00
202, -152035.00, -187500.02, -133199.50, -125226.07, -187500.02, -182111.33, -187500.02, -187500.02, 0.00, 0.00, 0.00
203, -151629.63, -187500.02, -133093.09, -125277.32, -187500.02, -182208.02, -187500.02, -187500.02, 0.00, 0.00, 0.00
204, -152239.27, -187500.02, -133238.55, -125193.68, -187500.02, -182057.77, -187500.02, -187500.02, 0.00, 0.00, 0.00
205, -152742.83, -187500.02, -133367.38, -125128.46, -187500.02, -181938.03, -187500.02, -187500.02, 0.00, 0.91, 0.41
206, -152187.88, -187500.02, -133232.58, -125203.72, -187500.02, -182076.88, -187500.02, -187500.02, 0.00, 0.00, 0.00
207, -151625.02, -187500.02, -133088.81, -125275.29, -187500.02, -182211.89, -187500.02, -187500.02, 0.00, 0.00, 0.00
208, -152103.39, -187500.02, -133204.13, -125214.27, -187500.02, -182099.50, -187500.02, -187500.02, 0.00, 0.00, 0.00
209, -152742.14, -187500.02, -133364.34, -125130.70, -187500.02, -181946.69, -187500.02, -187500.02, 0.00, 0.00, 0.00
210, -152341.53, -187500.02, -133268.73, -125183.87, -187500.02, -182046.61, -187500.02, -187500.02, 0.00, 0.00, 0.00
211, -151660.16, -187500.02, -133097.02, -125271.22, -187500.02, -182211.59, -187500.02, -187500.02, 0.00, 0.00, 0.00
212, -151961.61, -187500.02, -133166.30, -125229.27, -187500.02, -182138.25, -187500.02, -187500.02, 0.00, 0.00, 0.00
213, -152691.44, -187500.02, -133349.55, -125136.48, -187500.02, -181967.58, -187500.02, -187500.02, 0.00, 0.00, 0.00
214, -152473.84, -187500.02, -133295.89, -125161.31, -187500.02, -182018.83, -187500.02, -187500.02, 0.00, 0.00, 0.00
215, -151712.64, -187500.02, -133103.41, -125253.83, -187500.02, -182197.58, -187500.02, -187500.02, -0.00, 0.91, 0.41
216, -151826.55, -187500.02, -133127.03, -125237.63, -187500.02, -182170.27, -187500.02, -187500.02, 0.00, 0.00, 0.00
217, -152590.91, -187500.02, -133315.77, -125136.95, -187500.02, -181986.27, -187500.02, -187500.02, 0.00, 0.00, 0.00
218, -152581.36, -187500.02, -133315.45, -125138.43, -187500.02, -181989.94, -187500.02, -187500.02, 0.00, 0.00, 0.00
219, -151810.00, -187500.02, -133124.50, -125239.62, -187500.02, -182177.31, -187500.02, -187500.02, 0.00, 0.00, 0.00
220, -151726.77, -187500.02, -133100.55, -125249.29, -187500.02, -182194.88, -187500.02, -187500.02, 0.00, 0.00, 0.00
221, -152485.25, -187500.02, -133287.73, -125151.46, -187500.02, -182011.14, -187500.02, -187500.02, 0.00, 0.00, 0.00
222, -152677.47, -187500.02, -133336.28, -125124.99, -187500.02, -181959.84, -187500.02, -187500.02, 0.00, 0.00, 0.00
223, -151942.80, -187500.02, -133154.05, -125222.25, -187500.02, -182135.11, -187500.02, -187500.02, 0.00, 0.00, 0.00
224, -151678.98, -187500.02, -133086.13, -125260.40, -187500.02, -182198.14, -187500.02, -187500.02, 0.00, 0.00, 0.00
225, -152377.56, -187500.02, -133256.61, -125169.81, -187500.02, -182026.25, -187500.02, -187500.02, -0.00, 0.91, 0.41
226, -152759.95, -187500.02, -133351.02, -125117.20, -187500.02, -181926.11, -187500.02, -187500.02, 0.00, 0.00, 0.00
227, -152105.67, -187500.02, -133191.72, -125204.12, -187500.02, -182080.44, -187500.02, -187500.02, 0.00, 0.00, 0.00
228, -151668.41, -187500.02, -133084.05, -125268.89, -187500.02, -182188.70, -187500.02, -187500.02, 0.00, 0.00, 0.00
229, -152265.06, -187500.02, -133226.56, -125193.44, -187500.02, -182042.50, -187500.02, -187500.02, 0.00, 0.00, 0.00
230, -152813.73, -187500.02, -133365.23, -125124.99, -187500.02, -181908.66, -187500.02, -187500.02, 0.00, 0.00, 0.00
231, -152291.17, -187500.02, -133240.47, -125197.30, -187500.02, -182033.42, -187500.02, -187500.02, 0.00, 0.00, 0.00
232, -151702.00, -187500.02, -133094.78, -125277.92, -187500.02, -182173.06, -187500.02, -187500.02, 0.00, 0.00, 0.00
233, -152158.95, -187500.02, -133204.02, -125223.72, -187500.02, -182063.20, -187500.02, -187500.02, 0.00, 0.00, 0.00
234, -152836.73, -187500.02, -133370.86, -125137.16, -187500.02, -181896.09, -187500.02, -187500.02, 0.00, 0.00, 0.00
235, -152481.42, -187500.02, -133288.28, -125188.12, -187500.02, -181980.25, -187500.02, -187500.02, 0.00, 0.91, 0.41
236, -151787.94, -187500.02, -133117.75, -125283.09, -187500.02, -182145.45, -187500.02, -187500.02, 0.00, 0.00, 0.00
237, -152064.83, -187500.02, -133181.33, -125248.58, -187500.02, -182075.16, -187500.02, -187500.02, 0.00, 0.00, 0.00
238, -152826.09, -187500.02, -133369.64, -125150.95, -187500.02, -181890.53, -187500.02, -187500.02, 0.00, 0.00, 0.00
239, -152670.28, -187500.02, -133334.50, -125171.87, -187500.02, -181925.80, -187500.02, -187500.02, 0.00, 0.00, 0.00
240, -151908.02, -187500.02, -133146.56, -125271.11, -187500.02, -182105.06, -187500.02, -187500.02, 0.00, 0.00, 0.00
241, -151986.06, -187500.02, -133162.39, -125263.87, -187500.02, -182086.61, -187500.02, -187500.02, 0.00, 0.00, 0.00
242, -152761.67, -187500.02, -133353.14, -125164.83, -187500.02, -181901.86, -187500.02, -187500.02, 0.00, 0.00, 0.00
243, -152796.20, -187500.02, -133361.33, -125158.09, -187500.02, -181891.31, -187500.02, -187500.02, 0.00, 0.00, 0.00
244, -152019.27, -187500.02, -133167.27, -125256.89, -187500.02, -182076.05, -187500.02, -187500.02, 0.00, 0.00, 0.00
245, -151885.06, -187500.02, -133129.41, -125271.15, -187500.02, -182106.78, -187500.02, -187500.02, -0.00, 0.91, 0.42
246, -152625.33, -187500.02, -133308.64, -125171.91, -187500.02, -181929.69, -187500.02, -187500.02, 0.00, 0.00, 0.00
247, -152851.92, -187500.02, -133365.61, -125140.28, -187500.02, -181877.38, -187500.02, -187500.02, 0.00, 0.00, 0.00
248, -152114.77, -187500.02, -133181.28, -125232.70, -187500.02, -182055.27, -187500.02, -187500.02, 0.00, 0.00, 0.00
249, -151793.00, -187500.02, -133097.08, -125272.63, -187500.02, -182134.55, -187500.02, -187500.02, 0.00, 0.00, 0.00
250, -152457.17, -187500.02, -133259.80, -125186.13, -187500.02, -181979.22, -187500.02, -187500.02, 0.00, 0.00, 0.00
251, -152869.44, -187500.02, -133364.25, -125133.17, -187500.02, -181884.59, -187500.02, -187500.02, 0.00, 0.00, 0.00
252, -152225.91, -187500.02, -133203.89, -125214.20, -187500.02, -182039.28, -187500.02, -187500.02, 0.00, 0.00, 0.00
253, -151730.77, -187500.02, -133074.80, -125275.76, -187500.02, -182156.58, -187500.02, -187500.02, 0.00, 0.00, 0.00
254, -152279.64, -187500.02, -133206.48, -125206.51, -187500.02, -182028.53, -187500.02, -187500.02, 0.00, 0.00, 0.00
255, -152840.91, -187500.02, -133347.02, -125133.51, -187500.02, -181895.56, -187500.02, -187500.02, 0.00, 0.91, 0.42
0, -152340.03, -187500.02, -133224.14, -125198.76, -187500.02, -182018.31, -187500.02, -187500.02, 0.00, 0.00, 0.00
1, -151706.33, -187500.02, -133062.77, -125276.92, -187500.02, -182167.98, -187500.02, -187500.02, 0.00, 0.00, 0.00
2, -152102.66, -187500.02, -133155.89, -125223.74, -187500.02, -182073.92, -187500.02, -187500.02, 0.00, 0.00, 0.00
3, -152784.05, -187500.02, -133325.16, -125134.25, -187500.02, -181912.59, -187500.02, -187500.02, 0.00, 0.00, 0.00
4, -152452.89, -187500.02, -133245.34, -125174.81, -187500.02, -181993.02, -187500.02, -187500.02, 0.00, 0.00, 0.00
5, -151721.67, -187500.02, -133060.75, -125265.19, -187500.02, -182167.19, -187500.02, -187500.02, 0.00, 0.00, 0.00
6, -151934.69, -187500.02, -133109.31, -125235.19, -187500.02, -182117.47, -187500.02, -187500.02, 0.00, 0.00, 0.00
7, -152680.61, -187500.02, -133293.33, -125135.48, -187500.02, -181939.78, -187500.02, -187500.02, 0.00, 0.00, 0.00
8, -152550.73, -187500.02, -133262.97, -125150.79, -187500.02, -181973.48, -187500.02, -187500.02, 0.00, 0.00, 0.00
9, -151768.81, -187500.02, -133067.73, -125247.98, -187500.02, -182160.55, -187500.02, -187500.02, 0.00, 0.91, 0.41
10, -151788.66, -187500.02, -133068.06, -125242.72, -187500.02, -182156.30, -187500.02, -187500.02, 0.00, 0.00, 0.00
11, -152549.67, -187500.02, -133255.13, -125140.80, -187500.02, -181973.77, -187500.02, -187500.02, 0.00, 0.00, 0.00
12, -152626.13, -187500.02, -133274.70, -125127.84, -187500.02, -181955.22, -187500.02, -187500.02, 0.00, 0.00, 0.00
13, -151855.27, -187500.02, -133081.19, -125224.34, -187500.02, -182139.02, -187500.02, -187500.02, 0.00, 0.00, 0.00
14, -151679.25, -187500.02, -133035.19, -125246.25, -187500.02, -182181.70, -187500.02, -187500.02, 0.00, 0.00, 0.00
15, -152412.38, -187500.02, -133218.20, -125153.47, -187500.02, -182010.50, -187500.02, -187500.02, 0.00, 0.00, 0.00
16, -152688.97, -187500.02, -133289.39, -125116.81, -187500.02, -181944.84, -187500.02, -187500.02, 0.00, 0.00, 0.00
17, -151973.89, -187500.02, -133108.70, -125204.55, -187500.02, -182112.75, -187500.02, -187500.02, 0.00, 0.00, 0.00
18, -151614.41, -187500.02, -133013.75, -125247.23, -187500.02, -182195.70, -187500.02, -187500.02, 0.00, 0.90, 0.41
19, -152256.20, -187500.02, -133170.81, -125160.91, -187500.02, -182039.95, -187500.02, -187500.02, 0.00, 0.00, 0.00
20, -152707.83, -187500.02, -133284.66, -125100.30, -187500.02, -181930.98, -187500.02, -187500.02, 0.00, 0.00, 0.00
21, -152101.88, -187500.02, -133136.11, -125179.24, -187500.02, -182078.69, -187500.02, -187500.02, 0.00, 0.00, 0.00
22, -151580.97, -187500.02, -133002.42, -125244.24, -187500.02, -182202.20, -187500.02, -187500.02, 0.00, 0.00, 0.00
23, -152102.86, -187500.02, -133128.50, -125176.07, -187500.02, -182078.05, -187500.02, -187500.02, 0.00, 0.00, 0.00
24, -152696.55, -187500.02, -133278.59, -125097.10, -187500.02, -181935.45, -187500.02, -187500.02, 0.00, 0.00, 0.00
25, -152234.78, -187500.02, -133164.00, -125153.27, -187500.02, -182044.56, -187500.02, -187500.02, 0.00, 0.00, 0.00
26, -151580.08, -187500.02, -132996.50, -125232.53, -187500.02, -182197.28, -187500.02, -187500.02, 0.00, 0.00, 0.00
27, -151943.89, -187500.02, -133081.81, -125183.71, -187500.02, -182110.00, -187500.02, -187500.02, 0.00, 0.00, 0.00
28, -152649.72, -187500.02, -133258.03, -125092.36, -187500.02, -181943.22, -187500.02, -187500.02, 0.00, 0.90, 0.41
29, -152366.41, -187500.02, -133191.84, -125129.15, -187500.02, -182014.00, -187500.02, -187500.02, 0.00, 0.00, 0.00
30, -151623.77, -187500.02, -133006.63, -125224.02, -187500.02, -182193.27, -187500.02, -187500.02, 0.00, 0.00, 0.00
31, -151796.81, -187500.02, -133045.17, -125199.36, -187500.02, -182151.80, -187500.02, -187500.02, 0.00, 0.00, 0.00
32, -152554.78, -187500.02, -133231.48, -125097.81, -187500.02, -181970.03, -187500.02, -187500.02, 0.00, 0.00, 0.00
33, -152475.34, -187500.02, -133214.66, -125108.16, -187500.02, -181993.33, -187500.02, -187500.02, 0.00, 0.00, 0.00
34, -151690.38, -187500.02, -133020.28, -125206.96, -187500.02, -182183.23, -187500.02, -187500.02, 0.00, 0.00, 0.00
35, -151664.31, -187500.02, -133009.80, -125207.72, -187500.02, -182191.50, -187500.02, -187500.02, 0.00, 0.00, 0.00
36, -152417.70, -187500.02, -133191.72, -125101.77, -187500.02, -182007.77, -187500.02, -187500.02, 0.00, 0.00, 0.00
37, -152533.11, -187500.02, -133219.59, -125080.45, -187500.02, -181979.61, -187500.02, -187500.02, 0.00, 0.00, 0.00
38, -151759.56, -187500.02, -133023.97, -125172.96, -187500.02, -182164.05, -187500.02, -187500.02, 0.01, 0.90, 0.41
39, -151527.97, -187500.02, -132961.05, -125194.95, -187500.02, -182217.83, -187500.02, -187500.02, 0.00, 0.00, 0.00
40, -152239.16, -187500.02, -133137.53, -125102.28, -187500.02, -182054.61, -187500.02, -187500.02, 0.00, 0.00, 0.00
41, -152547.45, -187500.02, -133215.66, -125057.98, -187500.02, -181984.08, -187500.02, -187500.02, 0.00, 0.00, 0.00
42, -151840.16, -187500.02, -133037.09, -125141.49, -187500.02, -182153.92, -187500.02, -187500.02, 0.00, 0.00, 0.00
43, -151429.64, -187500.02, -132928.69, -125186.91, -187500.02, -182252.31, -187500.02, -187500.02, 0.00, 0.00, 0.00
44, -152038.19, -187500.02, -133077.56, -125103.02, -187500.02, -182109.30, -187500.02, -187500.02, 0.00, 0.00, 0.00
45, -152519.27, -187500.02, -133201.31, -125040.03, -187500.02, -182001.36, -187500.02, -187500.02, 0.00, 0.00, 0.00
46, -151929.14, -187500.02, -133055.11, -125112.08, -187500.02, -182146.97, -187500.02, -187500.02, 0.00, 0.00, 0.00
47, -151362.13, -187500.02, -132908.09, -125177.30, -187500.02, -182282.34, -187500.02, -187500.02, 0.00, 0.00, 0.00
48, -151839.55, -187500.02, -133020.44, -125108.61, -187500.02, -182168.09, -187500.02, -187500.02, 0.00, 0.90, 0.41
49, -152448.59, -187500.02, -133171.28, -125020.97, -187500.02, -182020.17, -187500.02, -187500.02, 0.00, 0.00, 0.00
50, -152013.84, -187500.02, -133063.59, -125071.10, -187500.02, -182126.39, -187500.02, -187500.02, 0.00, 0.00, 0.00
51, -151326.02, -187500.02, -132888.31, -125152.69, -187500.02, -182291.41, -187500.02, -187500.02, 0.00, 0.00, 0.00
52, -151636.47, -187500.02, -132958.63, -125105.81, -187500.02, -182217.20, -187500.02, -187500.02, 0.00, 0.00, 0.00
53, -152349.31, -187500.02, -133135.44, -125009.50, -187500.02, -182049.19, -187500.02, -187500.02, 0.00, 0.00, 0.00
54, -152096.11, -187500.02, -133074.45, -125036.75, -187500.02, -182112.50, -187500.02, -187500.02, 0.00, 0.00, 0.00
55, -151330.52, -187500.02, -132881.34, -125129.82, -187500.02, -182298.63, -187500.02, -187500.02, 0.00, 0.00, 0.00
56, -151450.55, -187500.02, -132906.19, -125108.84, -187500.02, -182271.63, -187500.02, -187500.02, 0.00, 0.00, 0.00
57, -152203.66, -187500.02, -133093.03, -125006.95, -187500.02, -182093.89, -187500.02, -187500.02, 0.00, 0.00, 0.00
58, -152158.73, -187500.02, -133082.48, -125007.36, -187500.02, -182107.70, -187500.02, -187500.02, 0.00, 0.90, 0.41
59, -151361.67, -187500.02, -132881.11, -125100.56, -187500.02, -182298.09, -187500.02, -187500.02, 0.00, 0.00, 0.00
60, -151283.80, -187500.02, -132857.09, -125104.79, -187500.02, -182318.64, -187500.02, -187500.02, 0.00, 0.00, 0.00
61, -152026.80, -187500.02, -133039.28, -125001.43, -187500.02, -182139.95, -187500.02, -187500.02, 0.00, 0.00, 0.00
62, -152183.56, -187500.02, -133077.52, -124973.12, -187500.02, -182101.38, -187500.02, -187500.02, 0.00, 0.00, 0.00
63, -151428.75, -187500.02, -132890.44, -125069.83, -187500.02, -182289.42, -187500.02, -187500.02, 0.00, 0.00, 0.00
64, -151161.22, -187500.02, -132822.80, -125102.73, -187500.02, -182356.67, -187500.02, -187500.02, 0.00, 0.00, 0.00
65, -151854.70, -187500.02, -132993.39, -125009.28, -187500.02, -182188.64, -187500.02, -187500.02, 0.00, 0.00, 0.00
66, -152209.39, -187500.02, -133083.38, -124960.15, -187500.02, -182102.16, -187500.02, -187500.02, 0.00, 0.00, 0.00
67, -151537.89, -187500.02, -132916.56, -125045.34, -187500.02, -182265.08, -187500.02, -187500.02, 0.00, 0.00, 0.00
68, -151107.05, -187500.02, -132806.91, -125101.23, -187500.02, -182369.83, -187500.02, -187500.02, 0.00, 0.90, 0.41
69, -151696.72, -187500.02, -132950.67, -125020.66, -187500.02, -182222.45, -187500.02, -187500.02, 0.00, 0.00, 0.00
70, -152219.08, -187500.02, -133082.06, -124950.38, -187500.02, -182091.78, -187500.02, -187500.02, 0.00, 0.00, 0.00
71, -151673.02, -187500.02, -132944.39, -125017.17, -187500.02, -182216.69, -187500.02, -187500.02, 0.00, 0.00, 0.00
72, -151095.81, -187500.02, -132797.52, -125092.56, -187500.02, -182352.77, -187500.02, -187500.02, 0.00, 0.00, 0.00
73, -151560.00, -187500.02, -132911.72, -125036.86, -187500.02, -182241.64, -187500.02, -187500.02, 0.00, 0.00, 0.00
74, -152211.22, -187500.02, -133075.94, -124950.90, -187500.02, -182079.30, -187500.02, -187500.02, 0.00, 0.00, 0.00
75, -151831.44, -187500.02, -132982.08, -124997.95, -187500.02, -182166.91, -187500.02, -187500.02, 0.00, 0.00, 0.00
76, -151138.09, -187500.02, -132806.17, -125084.42, -187500.02, -182329.97, -187500.02, -187500.02, 0.00, 0.00, 0.00
77, -151426.00, -187500.02, -132875.73, -125049.27, -187500.02, -182261.95, -187500.02, -187500.02, 0.00, 0.00, 0.00
78, -152159.92, -187500.02, -133056.67, -124950.77, -187500.02, -182080.77, -187500.02, -187500.02, 0.00, 0.91, 0.41
79, -151963.73, -187500.02, -133009.13, -124973.02, -187500.02, -182126.13, -187500.02, -187500.02, 0.00, 0.00, 0.00
80, -151203.67, -187500.02, -132817.89, -125069.45, -187500.02, -182310.44, -187500.02, -187500.02, 0.00, 0.00, 0.00
81, -151291.84, -187500.02, -132836.59, -125057.05, -187500.02, -182291.77, -187500.02, -187500.02, 0.00, 0.00, 0.00
82, -152054.69, -187500.02, -133026.30, -124956.46, -187500.02, -182110.41, -187500.02, -187500.02, 0.00, 0.00, 0.00
83, -152064.92, -187500.02, -133030.06, -124953.65, -187500.02, -182112.08, -187500.02, -187500.02, 0.00, 0.00, 0.00
84, -151281.55, -187500.02, -132831.45, -125047.41, -187500.02, -182299.66, -187500.02, -187500.02, 0.00, 0.00, 0.00
85, -151168.23, -187500.02, -132798.95, -125057.80, -187500.02, -182329.47, -187500.02, -187500.02, 0.00, 0.00, 0.00
86, -151900.64, -187500.02, -132979.44, -124957.11, -187500.02, -182154.66, -187500.02, -187500.02, 0.00, 0.00, 0.00
87, -152099.80, -187500.02, -133029.22, -124925.15, -187500.02, -182109.69, -187500.02, -187500.02, 0.00, 0.00, 0.00
88, -151354.91, -187500.02, -132840.08, -125015.49, -187500.02, -182294.36, -187500.02, -187500.02, 0.00, 0.91, 0.42
89, -151039.53, -187500.02, -132758.98, -125051.75, -187500.02, -182376.80, -187500.02, -187500.02, 0.00, 0.00, 0.00
90, -151698.77, -187500.02, -132920.70, -124959.10, -187500.02, -182221.05, -187500.02, -187500.02, 0.00, 0.00, 0.00
91, -152076.91, -187500.02, -133014.47, -124900.80, -187500.02, -182131.22, -187500.02, -187500.02, 0.00, 0.00, 0.00
92, -151417.16, -187500.02, -132849.28, -124980.84, -187500.02, -182298.91, -187500.02, -187500.02, 0.00, 0.00, 0.00
93, -150928.11, -187500.02, -132720.70, -125034.24, -187500.02, -182419.89, -187500.02, -187500.02, 0.00, 0.00, 0.00
94, -151467.19, -187500.02, -132850.58, -124952.86, -187500.02, -182289.41, -187500.02, -187500.02, 0.00, 0.00, 0.00
95, -152004.84, -187500.02, -132987.17, -124878.19, -187500.02, -182165.64, -187500.02, -187500.02, 0.00, 0.00, 0.00
96, -151479.16, -187500.02, -132854.56, -124939.09, -187500.02, -182296.78, -187500.02, -187500.02, 0.00, 0.00, 0.00
97, -150854.47, -187500.02, -132692.83, -125011.88, -187500.02, -182448.67, -187500.02, -187500.02, 0.00, 0.00, 0.00
98, -151256.58, -187500.02, -132785.55, -124950.45, -187500.02, -182348.52, -187500.02, -187500.02, 0.00, 0.91, 0.41
99, -151914.09, -187500.02, -132950.78, -124859.21, -187500.02, -182188.38, -187500.02, -187500.02, 0.00, 0.00, 0.00
100, -151567.52, -187500.02, -132865.36, -124901.70, -187500.02, -182273.73, -187500.02, -187500.02, 0.00, 0.00, 0.00
101, -150852.75, -187500.02, -132683.84, -124991.15, -187500.02, -182444.50, -187500.02, -187500.02, 0.00, 0.00, 0.00
102, -151096.69, -187500.02, -132741.73, -124959.86, -187500.02, -182383.03, -187500.02, -187500.02, 0.00, 0.00, 0.00
103, -151848.56, -187500.02, -132929.84, -124863.63, -187500.02, -182196.69, -187500.02, -187500.02, 0.00, 0.00, 0.00
104, -151705.31, -187500.02, -132896.97, -124883.41, -187500.02, -182226.09, -187500.02, -187500.02, 0.00, 0.00, 0.00
105, -150949.28, -187500.02, -132708.03, -124984.80, -187500.02, -182405.78, -187500.02, -187500.02, 0.00, 0.00, 0.00
106, -151008.98, -187500.02, -132721.56, -124982.16, -187500.02, -182389.06, -187500.02, -187500.02, 0.00, 0.00, 0.00
107, -151786.75, -187500.02, -132916.59, -124885.30, -187500.02, -182197.27, -187500.02, -187500.02, -0.00, 0.91, 0.41
108, -151856.42, -187500.02, -132935.92, -124880.33, -187500.02, -182176.91, -187500.02, -187500.02, 0.00, 0.00, 0.00
109, -151099.78, -187500.02, -132750.97, -124986.99, -187500.02, -182362.11, -187500.02, -187500.02, 0.00, 0.00, 0.00
110, -150965.95, -187500.02, -132716.42, -125010.73, -187500.02, -182394.19, -187500.02, -187500.02, 0.00, 0.00, 0.00
111, -151713.27, -187500.02, -132901.33, -124915.65, -187500.02, -182209.22, -187500.02, -187500.02, 0.00, 0.00, 0.00
112, -151975.58, -187500.02, -132967.33, -124882.30, -187500.02, -182141.61, -187500.02, -187500.02, 0.00, 0.00, 0.00
113, -151263.23, -187500.02, -132786.61, -124974.68, -187500.02, -182310.44, -187500.02, -187500.02, 0.00, 0.00, 0.00
114, -150931.98, -187500.02, -132700.80, -125018.66, -187500.02, -182388.63, -187500.02, -187500.02, 0.00, 0.00, 0.00
115, -151600.08, -187500.02, -132865.58, -124934.67, -187500.02, -182228.42, -187500.02, -187500.02, 0.00, 0.00, 0.00
116, -152041.50, -187500.02, -132979.63, -124881.34, -187500.02, -182125.73, -187500.02, -187500.02, 0.00, 0.00, 0.00
117, -151425.63, -187500.02, -132827.73, -124963.41, -187500.02, -182278.64, -187500.02, -187500.02, 0.00, 0.91, 0.41
118, -150926.39, -187500.02, -132697.42, -125024.75, -187500.02, -182397.66, -187500.02, -187500.02, 0.00, 0.00, 0.00
119, -151466.44, -187500.02, -132832.72, -124957.29, -187500.02, -182273.34, -187500.02, -187500.02, 0.00, 0.00, 0.00
120, -152049.88, -187500.02, -132982.48, -124883.15, -187500.02, -182138.39, -187500.02, -187500.02, 0.00, 0.00, 0.00
121, -151564.84, -187500.02, -132862.34, -124943.32, -187500.02, -182258.48, -187500.02, -187500.02, 0.00, 0.00, 0.00
122, -150919.95, -187500.02, -132695.94, -125020.09, -187500.02, -182412.78, -187500.02, -187500.02, 0.00, 0.00, 0.00
123, -151298.03, -187500.02, -132782.91, -124965.38, -187500.02, -182321.16, -187500.02, -187500.02, 0.00, 0.00, 0.00
124, -151981.27, -187500.02, -132956.16, -124874.50, -187500.02, -182160.47, -187500.02, -187500.02, 0.00, 0.00, 0.00
125, -151665.95, -187500.02, -132880.64, -124912.43, -187500.02, -182241.91, -187500.02, -187500.02, 0.00, 0.00, 0.00
126, -150918.91, -187500.02, -132690.81, -125001.05, -187500.02, -182423.23, -187500.02, -187500.02, 0.00, 0.00, 0.00
127, -151106.73, -187500.02, -132730.42, -124968.30, -187500.02, -182379.33, -187500.02, -187500.02, -0.00, 0.91, 0.41
128, -151849.86, -187500.02, -132914.27, -124865.20, -187500.02, -182205.33, -187500.02, -187500.02, 0.00, 0.00, 0.00
129, -151713.95, -187500.02, -132883.89, -124873.41, -187500.02, -182245.48, -187500.02, -187500.02, 0.00, 0.00, 0.00
130, -150902.64, -187500.02, -132677.45, -124962.59, -187500.02, -182444.86, -187500.02, -187500.02, 0.00, 0.00, 0.00
131, -150876.22, -187500.02, -132660.59, -124948.20, -187500.02, -182452.28, -187500.02, -187500.02, 0.00, 0.00, 0.00
132, -151615.56, -187500.02, -132840.69, -124838.53, -187500.02, -182279.75, -187500.02, -187500.02, 0.00, 0.00, 0.00
133, -151680.97, -187500.02, -132856.84, -124816.48, -187500.02, -182271.45, -187500.02, -187500.02, 0.00, 0.00, 0.00
134, -150870.30, -187500.02, -132653.39, -124905.09, -187500.02, -182473.52, -187500.02, -187500.02, 0.00, 0.00, 0.00
135, -150645.33, -187500.02, -132589.73, -124917.91, -187500.02, -182533.38, -187500.02, -187500.02, 0.00, 0.00, 0.00
136, -151336.91, -187500.02, -132753.27, -124808.38, -187500.02, -182367.16, -187500.02, -187500.02, 0.00, 0.00, 0.00
137, -151595.77, -187500.02, -132818.39, -124760.52, -187500.02, -182311.44, -187500.02, -187500.02, 0.00, 0.91, 0.42
138, -150853.13, -187500.02, -132632.05, -124843.85, -187500.02, -182500.11, -187500.02, -187500.02, 0.00, 0.00, 0.00
139, -150439.28, -187500.02, -132521.86, -124881.56, -187500.02, -182604.92, -187500.02, -187500.02, 0.00, 0.00, 0.00
140, -151047.70, -187500.02, -132666.78, -124788.96, -187500.02, -182464.08, -187500.02, -187500.02, 0.00, 0.00, 0.00
141, -151482.44, -187500.02, -132773.69, -124716.56, -187500.02, -182362.27, -187500.02, -187500.02, 0.00, 0.00, 0.00
142, -150851.00, -187500.02, -132615.00, -124783.57, -187500.02, -182519.75, -187500.02, -187500.02, 0.00, 0.00, 0.00
143, -150291.72, -187500.02, -132468.81, -124843.01, -187500.02, -182659.03, -187500.02, -187500.02, 0.00, 0.00, 0.00
144, -150781.69, -187500.02, -132586.59, -124770.79, -187500.02, -182546.17, -187500.02, -187500.02, 0.00, 0.00, 0.00
145, -151376.27, -187500.02, -132737.63, -124688.22, -187500.02, -182409.25, -187500.02, -187500.02, 0.00, 0.00, 0.00
146, -150910.80, -187500.02, -132623.89, -124741.80, -187500.02, -182528.19, -187500.02, -187500.02, 0.00, 0.00, 0.00
147, -150230.56, -187500.02, -132448.34, -124818.48, -187500.02, -182693.63, -187500.02, -187500.02, 0.00, 0.90, 0.41
148, -150568.75, -187500.02, -132525.48, -124766.98, -187500.02, -182614.45, -187500.02, -187500.02, 0.00, 0.00, 0.00
149, -151264.11, -187500.02, -132699.22, -124668.21, -187500.02, -182445.50, -187500.02, -187500.02, 0.00, 0.00, 0.00
150, -150986.72, -187500.02, -132634.44, -124699.84, -187500.02, -182516.77, -187500.02, -187500.02, 0.00, 0.00, 0.00
151, -150227.02, -187500.02, -132441.48, -124789.43, -187500.02, -182699.05, -187500.02, -187500.02, 0.00, 0.00, 0.00
152, -150378.98, -187500.02, -132471.56, -124760.91, -187500.02, -182658.05, -187500.02, -187500.02, 0.00, 0.00, 0.00
153, -151136.50, -187500.02, -132657.47, -124654.87, -187500.02, -182468.86, -187500.02, -187500.02, 0.00, 0.00, 0.00
154, -151063.05, -187500.02, -132642.72, -124658.45, -187500.02, -182482.56, -187500.02, -187500.02, 0.00, 0.00, 0.00
155, -150282.69, -187500.02, -132448.36, -124756.59, -187500.02, -182670.34, -187500.02, -187500.02, 0.00, 0.00, 0.00
156, -150253.11, -187500.02, -132437.75, -124759.12, -187500.02, -182675.58, -187500.02, -187500.02, 0.00, 0.00, 0.00
157, -151025.69, -187500.02, -132630.13, -124657.84, -187500.02, -182483.75, -187500.02, -187500.02, 0.00, 0.90, 0.41
158, -151179.34, -187500.02, -132674.16, -124641.05, -187500.02, -182445.14, -187500.02, -187500.02, 0.00, 0.00, 0.00
159, -150427.17, -187500.02, -132490.27, -124740.70, -187500.02, -182624.91, -187500.02, -187500.02, 0.00, 0.00, 0.00
160, -150210.73, -187500.02, -132433.92, -124771.34, -187500.02, -182672.69, -187500.02, -187500.02, 0.00, 0.00, 0.00
161, -150943.42, -187500.02, -132617.33, -124682.27, -187500.02, -182491.48, -187500.02, -187500.02, 0.00, 0.00, 0.00
162, -151294.86, -187500.02, -132708.66, -124640.38, -187500.02, -182397.77, -187500.02, -187500.02, 0.00, 0.00, 0.00
163, -150631.13, -187500.02, -132543.58, -124731.27, -187500.02, -182550.98, -187500.02, -187500.02, 0.00, 0.00, 0.00
164, -150242.72, -187500.02, -132444.61, -124787.15, -187500.02, -182634.98, -187500.02, -187500.02, 0.00, 0.00, 0.00
165, -150892.91, -187500.02, -132607.78, -124715.55, -187500.02, -182470.16, -187500.02, -187500.02, 0.00, 0.00, 0.00
166, -151439.48, -187500.02, -132752.17, -124661.71, -187500.02, -182329.47, -187500.02, -187500.02, 0.00, 0.00, 0.00
167, -150919.48, -187500.02, -132626.55, -124744.27, -187500.02, -182443.25, -187500.02, -187500.02, -0.00, 0.90, 0.41
168, -150404.59, -187500.02, -132496.31, -124825.75, -187500.02, -182555.11, -187500.02, -187500.02, 0.00, 0.00, 0.00
169, -150924.36, -187500.02, -132627.33, -124774.09, -187500.02, -182419.08, -187500.02, -187500.02, 0.00, 0.00, 0.00
170, -151601.89, -187500.02, -132801.14, -124695.80, -187500.02, -182241.02, -187500.02, -187500.02, 0.00, 0.00, 0.00
171, -151234.00, -187500.02, -132715.63, -124755.07, -187500.02, -182320.80, -187500.02, -187500.02, 0.00, 0.00, 0.00
172, -150586.30, -187500.02, -132552.02, -124847.14, -187500.02, -182464.95, -187500.02, -187500.02, 0.00, 0.00, 0.00
173, -150928.56, -187500.02, -132633.84, -124811.13, -187500.02, -182372.75, -187500.02, -187500.02, 0.00, 0.00, 0.00
174, -151674.53, -187500.02, -132825.23, -124722.46, -187500.02, -182186.05, -187500.02, -187500.02, 0.00, 0.00, 0.00
175, -151469.75, -187500.02, -132779.89, -124755.72, -187500.02, -182231.73, -187500.02, -187500.02, 0.00, 0.00, 0.00
176, -150726.14, -187500.02, -132590.97, -124851.66, -187500.02, -182402.36, -187500.02, -187500.02, 0.00, 0.00, 0.00
177, -150857.53, -187500.02, -132619.33, -124836.88, -187500.02, -182365.55, -187500.02, -187500.02, -0.01, 0.90, 0.41
178, -151636.28, -187500.02, -132814.67, -124739.88, -187500.02, -182175.30, -187500.02, -187500.02, 0.00, 0.00, 0.00
179, -151621.28, -187500.02, -132815.53, -124743.05, -187500.02, -182175.03, -187500.02, -187500.02, 0.00, 0.00, 0.00
180, -150849.89, -187500.02, -132620.03, -124840.73, -187500.02, -182354.48, -187500.02, -187500.02, 0.00, 0.00, 0.00
181, -150779.61, -187500.02, -132597.31, -124850.13, -187500.02, -182366.63, -187500.02, -187500.02, 0.00, 0.00, 0.00
182, -151546.52, -187500.02, -132790.03, -124755.77, -187500.02, -182180.88, -187500.02, -187500.02, 0.00, 0.00, 0.00
183, -151746.56, -187500.02, -132844.80, -124735.72, -187500.02, -182132.52, -187500.02, -187500.02, 0.00, 0.00, 0.00
184, -151011.58, -187500.02, -132663.61, -124835.36, -187500.02, -182308.73, -187500.02, -187500.02, 0.00, 0.00, 0.00
185, -150752.30, -187500.02, -132593.88, -124869.54, -187500.02, -182364.95, -187500.02, -187500.02, 0.00, 0.00, 0.00
186, -151459.58, -187500.02, -132769.30, -124781.49, -187500.02, -182190.27, -187500.02, -187500.02, 0.00, 0.90, 0.41
187, -151842.69, -187500.02, -132866.05, -124732.27, -187500.02, -182089.34, -187500.02, -187500.02, 0.00, 0.00, 0.00
188, -151198.91, -187500.02, -132704.67, -124819.36, -187500.02, -182239.89, -187500.02, -187500.02, 0.00, 0.00, 0.00
189, -150772.86, -187500.02, -132599.28, -124883.48, -187500.02, -182342.70, -187500.02, -187500.02, 0.00, 0.00, 0.00
190, -151380.17, -187500.02, -132752.39, -124814.57, -187500.02, -182196.08, -187500.02, -187500.02, 0.00, 0.00, 0.00
191, -151929.20, -187500.02, -132892.41, -124747.92, -187500.02, -182056.52, -187500.02, -187500.02, 0.00, 0.00, 0.00
192, -151413.28, -187500.02, -132764.19, -124818.87, -187500.02, -182173.80, -187500.02, -187500.02, 0.00, 0.00, 0.00
193, -150844.36, -187500.02, -132617.30, -124896.36, -187500.02, -182304.33, -187500.02, -187500.02, 0.00, 0.00, 0.00
194, -151298.97, -187500.02, -132728.95, -124841.64, -187500.02, -182189.42, -187500.02, -187500.02, 0.00, 0.00, 0.00
195, -151966.27, -187500.02, -132898.19, -124756.55, -187500.02, -182021.14, -187500.02, -187500.02, 0.00, 0.00, 0.00
196, -151611.08, -187500.02, -132812.97, -124806.05, -187500.02, -182103.09, -187500.02, -187500.02, 0.00, 0.90, 0.41
197, -150921.95, -187500.02, -132636.59, -124894.77, -187500.02, -182262.02, -187500.02, -187500.02, 0.00, 0.00, 0.00
198, -151202.45, -187500.02, -132701.61, -124860.17, -187500.02, -182190.00, -187500.02, -187500.02, 0.00, 0.00, 0.00
199, -151945.98, -187500.02, -132891.48, -124766.90, -187500.02, -182008.17, -187500.02, -187500.02, 0.00, 0.00, 0.00
200, -151777.81, -187500.02, -132853.44, -124790.95, -187500.02, -182045.66, -187500.02, -187500.02, 0.00, 0.00, 0.00
201, -151025.13, -187500.02, -132663.45, -124888.78, -187500.02, -182222.50, -187500.02, -187500.02, 0.00, 0.00, 0.00
202, -151109.91, -187500.02, -132680.83, -124879.33, -187500.02, -182198.63, -187500.02, -187500.02, 0.00, 0.00, 0.00
203, -151885.13, -187500.02, -132873.53, -124779.21, -187500.02, -182007.36, -187500.02, -187500.02, 0.00, 0.00, 0.00
204, -151917.69, -187500.02, -132886.64, -124777.20, -187500.02, -181997.31, -187500.02, -187500.02, 0.00, 0.00, 0.00
205, -151155.05, -187500.02, -132695.53, -124877.16, -187500.02, -182178.28, -187500.02, -187500.02, 0.00, 0.00, 0.00
206, -151040.72, -187500.02, -132662.98, -124893.43, -187500.02, -182202.78, -187500.02, -187500.02, 0.00, 0.90, 0.41
207, -151789.44, -187500.02, -132849.69, -124797.95, -187500.02, -182019.81, -187500.02, -187500.02, 0.00, 0.00, 0.00
208, -152027.22, -187500.02, -132912.98, -124770.92, -187500.02, -181961.95, -187500.02, -187500.02, 0.00, 0.00, 0.00
209, -151304.52, -187500.02, -132733.17, -124866.59, -187500.02, -182133.58, -187500.02, -187500.02, 0.00, 0.00, 0.00
210, -151000.94, -187500.02, -132652.28, -124905.81, -187500.02, -182201.41, -187500.02, -187500.02, 0.00, 0.00, 0.00
211, -151678.95, -187500.02, -132817.69, -124816.48, -187500.02, -182030.86, -187500.02, -187500.02, 0.00, 0.00, 0.00
212, -152096.63, -187500.02, -132924.97, -124764.05, -187500.02, -181925.98, -187500.02, -187500.02, 0.00, 0.00, 0.00
213, -151476.84, -187500.02, -132769.94, -124847.77, -187500.02, -182072.77, -187500.02, -187500.02, 0.00, 0.00, 0.00
214, -151009.77, -187500.02, -132652.72, -124913.52, -187500.02, -182184.03, -187500.02, -187500.02, 0.00, 0.00, 0.00
215, -151578.03, -187500.02, -132794.70, -124845.44, -187500.02, -182046.09, -187500.02, -187500.02, 0.00, 0.00, 0.00
216, -152153.97, -187500.02, -132942.72, -124775.08, -187500.02, -181904.61, -187500.02, -187500.02, -0.00, 0.90, 0.41
217, -151670.70, -187500.02, -132822.98, -124841.40, -187500.02, -182017.56, -187500.02, -187500.02, 0.00, 0.00, 0.00
218, -151070.94, -187500.02, -132667.92, -124921.23, -187500.02, -182156.52, -187500.02, -187500.02, 0.00, 0.00, 0.00
219, -151484.05, -187500.02, -132769.17, -124870.81, -187500.02, -182053.30, -187500.02, -187500.02, 0.00, 0.00, 0.00
220, -152171.77, -187500.02, -132944.23, -124784.60, -187500.02, -181884.03, -187500.02, -187500.02, 0.00, 0.00, 0.00
221, -151861.41, -187500.02, -132870.30, -124830.89, -187500.02, -181958.33, -187500.02, -187500.02, 0.00, 0.00, 0.00
222, -151159.45, -187500.02, -132690.59, -124923.36, -187500.02, -182121.97, -187500.02, -187500.02, 0.00, 0.00, 0.00
223, -151402.94, -187500.02, -132748.33, -124897.84, -187500.02, -182063.42, -187500.02, -187500.02, 0.00, 0.00, 0.00
224, -152156.13, -187500.02, -132939.20, -124802.37, -187500.02, -181878.64, -187500.02, -187500.02, 0.00, 0.00, 0.00
225, -152031.59, -187500.02, -132908.50, -124817.26, -187500.02, -181901.23, -187500.02, -187500.02, 0.00, 0.00, 0.00
226, -151281.16, -187500.02, -132720.27, -124919.36, -187500.02, -182081.58, -187500.02, -187500.02, 0.00, 0.90, 0.41
227, -151331.30, -187500.02, -132731.73, -124920.38, -187500.02, -182072.55, -187500.02, -187500.02, 0.00, 0.00, 0.00
228, -152106.66, -187500.02, -132923.58, -124820.20, -187500.02, -181882.02, -187500.02, -187500.02, 0.00, 0.00, 0.00
229, -152184.34, -187500.02, -132945.95, -124810.59, -187500.02, -181859.64, -187500.02, -187500.02, 0.00, 0.00, 0.00
230, -151433.38, -187500.02, -132757.78, -124910.30, -187500.02, -182039.44, -187500.02, -187500.02, 0.00, 0.00, 0.00
231, -151282.95, -187500.02, -132714.78, -124926.38, -187500.02, -182070.13, -187500.02, -187500.02, 0.00, 0.00, 0.00
232, -152023.86, -187500.02, -132899.84, -124829.84, -187500.02, -181890.27, -187500.02, -187500.02, 0.00, 0.00, 0.00
233, -152305.61, -187500.02, -132974.86, -124798.34, -187500.02, -181826.31, -187500.02, -187500.02, 0.00, 0.00, 0.00
234, -151601.22, -187500.02, -132799.95, -124892.80, -187500.02, -181998.31, -187500.02, -187500.02, 0.00, 0.00, 0.00
235, -151258.30, -187500.02, -132711.56, -124938.63, -187500.02, -182083.19, -187500.02, -187500.02, 0.00, 0.00, 0.00
236, -151905.48, -187500.02, -132871.53, -124853.51, -187500.02, -181928.94, -187500.02, -187500.02, 0.00, 0.91, 0.41
237, -152346.59, -187500.02, -132984.36, -124794.73, -187500.02, -181824.55, -187500.02, -187500.02, 0.00, 0.00, 0.00
238, -151738.70, -187500.02, -132830.67, -124872.13, -187500.02, -181973.19, -187500.02, -187500.02, 0.00, 0.00, 0.00
239, -151216.94, -187500.02, -132694.75, -124933.98, -187500.02, -182096.86, -187500.02, -187500.02, 0.00, 0.00, 0.00
240, -151731.97, -187500.02, -132821.44, -124865.80, -187500.02, -181976.61, -187500.02, -187500.02, 0.00, 0.00, 0.00
241, -152308.84, -187500.02, -132964.95, -124785.76, -187500.02, -181836.94, -187500.02, -187500.02, 0.00, 0.00, 0.00
242, -151839.38, -187500.02, -132847.25, -124847.54, -187500.02, -181954.61, -187500.02, -187500.02, 0.00, 0.00, 0.00
243, -151195.63, -187500.02, -132682.72, -124933.87, -187500.02, -182115.55, -187500.02, -187500.02, 0.00, 0.00, 0.00
244, -151547.70, -187500.02, -132767.84, -124885.95, -187500.02, -182031.95, -187500.02, -187500.02, 0.00, 0.00, 0.00
245, -152226.69, -187500.02, -132936.59, -124789.74, -187500.02, -181863.86, -187500.02, -187500.02, 0.00, 0.00, 0.00
246, -151938.09, -187500.02, -132865.72, -124825.93, -187500.02, -181935.92, -187500.02, -187500.02, 0.00, 0.91, 0.41
247, -151206.22, -187500.02, -132678.08, -124917.77, -187500.02, -182112.42, -187500.02, -187500.02, 0.00, 0.00, 0.00
248, -151387.11, -187500.02, -132717.77, -124891.42, -187500.02, -182069.38, -187500.02, -187500.02, 0.00, 0.00, 0.00
249, -152129.75, -187500.02, -132905.97, -124791.57, -187500.02, -181890.91, -187500.02, -187500.02, 0.00, 0.00, 0.00
250, -152037.25, -187500.02, -132886.23, -124801.23, -187500.02, -181914.52, -187500.02, -187500.02, 0.00, 0.00, 0.00
251, -151264.28, -187500.02, -132688.64, -124895.53, -187500.02, -182097.44, -187500.02, -187500.02, 0.00, 0.00, 0.00
252, -151248.30, -187500.02, -132679.08, -124892.70, -187500.02, -182098.45, -187500.02, -187500.02, 0.00, 0.00, 0.00
253, -152005.42, -187500.02, -132866.91, -124791.08, -187500.02, -181915.13, -187500.02, -187500.02, 0.00, 0.00, 0.00
254, -152118.77, -187500.02, -132899.20, -124775.86, -187500.02, -181889.42, -187500.02, -187500.02, 0.00, 0.00, 0.00
255, -151364.38, -187500.02, -132709.48, -124873.18, -187500.02, -182072.16, -187500.02, -187500.02, 0.00, 0.00, 0.00
0, -151158.20, -187500.02, -132652.22, -124895.45, -187500.02, -182117.53, -187500.02, -187500.02, -0.00, 0.90, 0.41
1, -151870.02, -187500.02, -132827.63, -124797.63, -187500.02, -181940.78, -187500.02, -187500.02, 0.00, 0.00, 0.00
2, -152181.11, -187500.02, -132905.88, -124753.89, -187500.02, -181862.33, -187500.02, -187500.02, 0.00, 0.00, 0.00
3, -151495.25, -187500.02, -132734.80, -124843.54, -187500.02, -182028.11, -187500.02, -187500.02, 0.00, 0.00, 0.00
4, -151115.31, -187500.02, -132636.05, -124892.18, -187500.02, -182118.30, -187500.02, -187500.02, 0.00, 0.00, 0.00
5, -151738.48, -187500.02, -132789.16, -124808.47, -187500.02, -181964.72, -187500.02, -187500.02, 0.00, 0.00, 0.00
6, -152217.98, -187500.02, -132912.45, -124745.39, -187500.02, -181848.02, -187500.02, -187500.02, 0.00, 0.00, 0.00
7, -151648.02, -187500.02, -132769.11, -124819.67, -187500.02, -181985.13, -187500.02, -187500.02, 0.00, 0.00, 0.00
8, -151110.58, -187500.02, -132633.28, -124890.88, -187500.02, -182115.13, -187500.02, -187500.02, 0.00, 0.00, 0.00
9, -151604.03, -187500.02, -132755.70, -124827.63, -187500.02, -181996.19, -187500.02, -187500.02, 0.00, 0.00, 0.00
10, -152222.73, -187500.02, -132912.41, -124745.62, -187500.02, -181844.69, -187500.02, -187500.02, 0.00, 0.90, 0.42
11, -151802.45, -187500.02, -132806.80, -124798.44, -187500.02, -181943.34, -187500.02, -187500.02, 0.00, 0.00, 0.00
12, -151147.75, -187500.02, -132638.52, -124883.02, -187500.02, -182099.55, -187500.02, -187500.02, 0.00, 0.00, 0.00
13, -151476.19, -187500.02, -132719.38, -124841.02, -187500.02, -182020.17, -187500.02, -187500.02, 0.00, 0.00, 0.00
14, -152188.19, -187500.02, -132899.64, -124747.14, -187500.02, -181846.95, -187500.02, -187500.02, 0.00, 0.00, 0.00
15, -151955.58, -187500.02, -132844.91, -124780.76, -187500.02, -181906.41, -187500.02, -187500.02, 0.00, 0.00, 0.00
16, -151219.52, -187500.02, -132656.70, -124874.88, -187500.02, -182081.63, -187500.02, -187500.02, 0.00, 0.00, 0.00
17, -151365.06, -187500.02, -132687.28, -124853.98, -187500.02, -182043.94, -187500.02, -187500.02, 0.00, 0.00, 0.00
18, -152119.31, -187500.02, -132876.02, -124751.77, -187500.02, -181858.19, -187500.02, -187500.02, 0.00, 0.00, 0.00
19, -152078.77, -187500.02, -132866.55, -124753.82, -187500.02, -181864.81, -187500.02, -187500.02, 0.01, 0.90, 0.41
20, -151310.17, -187500.02, -132669.00, -124849.33, -187500.02, -182045.55, -187500.02, -187500.02, 0.00, 0.00, 0.00
21, -151261.95, -187500.02, -132654.25, -124856.75, -187500.02, -182058.55, -187500.02, -187500.02, 0.00, 0.00, 0.00
22, -152015.91, -187500.02, -132841.47, -124756.81, -187500.02, -181875.89, -187500.02, -187500.02, 0.00, 0.00, 0.00
23, -152176.95, -187500.02, -132885.94, -124737.30, -187500.02, -181839.89, -187500.02, -187500.02, 0.00, 0.00, 0.00
24, -151435.48, -187500.02, -132698.88, -124833.26, -187500.02, -182019.50, -187500.02, -187500.02, 0.00, 0.00, 0.00
25, -151187.73, -187500.02, -132629.30, -124859.30, -187500.02, -182073.14, -187500.02, -187500.02, 0.00, 0.00, 0.00
26, -151887.66, -187500.02, -132805.28, -124769.27, -187500.02, -181907.08, -187500.02, -187500.02, 0.00, 0.00, 0.00
27, -152244.39, -187500.02, -132898.66, -124725.66, -187500.02, -181825.64, -187500.02, -187500.02, 0.00, 0.00, 0.00
28, -151578.91, -187500.02, -132733.17, -124814.23, -187500.02, -181989.95, -187500.02, -187500.02, 0.00, 0.00, 0.00
29, -151156.91, -187500.02, -132622.81, -124866.95, -187500.02, -182090.89, -187500.02, -187500.02, -0.00, 0.90, 0.41
30, -151752.45, -187500.02, -132769.56, -124787.88, -187500.02, -181947.84, -187500.02, -187500.02, 0.00, 0.00, 0.00
31, -152263.86, -187500.02, -132899.53, -124718.91, -187500.02, -181824.48, -187500.02, -187500.02, 0.00, 0.00, 0.00
32, -151726.97, -187500.02, -132766.55, -124791.88, -187500.02, -181959.72, -187500.02, -187500.02, 0.00, 0.00, 0.00
33, -151157.48, -187500.02, -132621.19, -124864.98, -187500.02, -182097.80, -187500.02, -187500.02, 0.00, 0.00, 0.00
34, -151610.00, -187500.02, -132731.38, -124803.69, -187500.02, -181988.13, -187500.02, -187500.02, 0.00, 0.00, 0.00
35, -152243.45, -187500.02, -132889.03, -124714.91, -187500.02, -181831.14, -187500.02, -187500.02, 0.00, 0.00, 0.00
36, -151862.31, -187500.02, -132794.77, -124765.17, -187500.02, -181926.88, -187500.02, -187500.02, 0.00, 0.00, 0.00
37, -151184.64, -187500.02, -132621.03, -124853.15, -187500.02, -182092.89, -187500.02, -187500.02, 0.00, 0.00, 0.00
38, -151467.50, -187500.02, -132690.56, -124816.16, -187500.02, -182027.39, -187500.02, -187500.02, 0.00, 0.00, 0.00
39, -152184.47, -187500.02, -132870.66, -124717.68, -187500.02, -181852.63, -187500.02, -187500.02, 0.00, 0.91, 0.41
40, -151987.75, -187500.02, -132822.16, -124741.98, -187500.02, -181902.77, -187500.02, -187500.02, 0.00, 0.00, 0.00
41, -151237.44, -187500.02, -132629.69, -124836.66, -187500.02, -182084.50, -187500.02, -187500.02, 0.00, 0.00, 0.00
42, -151337.53, -187500.02, -132650.77, -124823.80, -187500.02, -182063.92, -187500.02, -187500.02, 0.00, 0.00, 0.00
43, -152090.34, -187500.02, -132840.81, -124723.42, -187500.02, -181883.73, -187500.02, -187500.02, 0.00, 0.00, 0.00
44, -152091.20, -187500.02, -132843.77, -124721.86, -187500.02, -181885.81, -187500.02, -187500.02, 0.00, 0.00, 0.00
45, -151327.05, -187500.02, -132651.36, -124821.88, -187500.02, -182074.27, -187500.02, -187500.02, 0.00, 0.00, 0.00
46, -151229.03, -187500.02, -132621.81, -124831.67, -187500.02, -182096.80, -187500.02, -187500.02, 0.00, 0.00, 0.00
47, -151969.86, -187500.02, -132802.69, -124728.23, -187500.02, -181912.77, -187500.02, -187500.02, 0.00, 0.00, 0.00
48, -152171.28, -187500.02, -132857.84, -124702.48, -187500.02, -181866.59, -187500.02, -187500.02, 0.00, 0.00, 0.00
49, -151441.94, -187500.02, -132673.56, -124795.62, -187500.02, -182042.06, -187500.02, -187500.02, 0.00, 0.91, 0.40
50, -151158.34, -187500.02, -132598.20, -124831.11, -187500.02, -182108.86, -187500.02, -187500.02, 0.00, 0.00, 0.00
51, -151837.78, -187500.02, -132765.94, -124739.45, -187500.02, -181941.63, -187500.02, -187500.02, 0.00, 0.00, 0.00
52, -152226.13, -187500.02, -132861.52, -124683.08, -187500.02, -181841.78, -187500.02, -187500.02, 0.00, 0.00, 0.00
53, -151581.95, -187500.02, -132696.92, -124762.54, -187500.02, -181992.53, -187500.02, -187500.02, 0.00, 0.00, 0.00
54, -151129.39, -187500.02, -132582.42, -124823.85, -187500.02, -182103.48, -187500.02, -187500.02, 0.00, 0.00, 0.00
55, -151699.09, -187500.02, -132724.70, -124751.09, -187500.02, -181966.58, -187500.02, -187500.02, 0.00, 0.00, 0.00
56, -152246.67, -187500.02, -132864.95, -124679.88, -187500.02, -181833.92, -187500.02, -187500.02, 0.00, 0.00, 0.00
57, -151747.53, -187500.02, -132739.61, -124747.02, -187500.02, -181955.84, -187500.02, -187500.02, 0.00, 0.00, 0.00
58, -151152.81, -187500.02, -132586.94, -124823.36, -187500.02, -182096.22, -187500.02, -187500.02, 0.00, 0.00, 0.00
59, -151573.83, -187500.02, -132689.86, -124767.37, -187500.02, -181991.11, -187500.02, -187500.02, 0.00, 0.91, 0.41
60, -152239.38, -187500.02, -132857.73, -124678.65, -187500.02, -181826.61, -187500.02, -187500.02, 0.00, 0.00, 0.00
61, -151904.70, -187500.02, -132775.08, -124723.94, -187500.02, -181907.13, -187500.02, -187500.02, 0.00, 0.00, 0.00
62, -151214.86, -187500.02, -132598.03, -124814.33, -187500.02, -182071.30, -187500.02, -187500.02, 0.00, 0.00, 0.00
63, -151467.19, -187500.02, -132661.08, -124785.38, -187500.02, -182011.52, -187500.02, -187500.02, 0.00, 0.00, 0.00
64, -152205.27, -187500.02, -132848.58, -124689.11, -187500.02, -181831.02, -187500.02, -187500.02, 0.00, 0.00, 0.00
65, -152058.36, -187500.02, -132811.98, -124706.75, -187500.02, -181862.59, -187500.02, -187500.02, 0.00, 0.00, 0.00
66, -151310.20, -187500.02, -132621.83, -124804.76, -187500.02, -182041.45, -187500.02, -187500.02, 0.00, 0.00, 0.00
67, -151373.25, -187500.02, -132632.34, -124796.63, -187500.02, -182023.75, -187500.02, -187500.02, 0.00, 0.00, 0.00
68, -152133.44, -187500.02, -132823.69, -124696.42, -187500.02, -181837.48, -187500.02, -187500.02, 0.00, 0.00, 0.00
69, -152186.11, -187500.02, -132839.56, -124689.41, -187500.02, -181823.08, -187500.02, -187500.02, 0.00, 0.90, 0.41
70, -151432.91, -187500.02, -132649.58, -124789.27, -187500.02, -182004.89, -187500.02, -187500.02, 0.00, 0.00, 0.00
71, -151297.39, -187500.02, -132611.08, -124806.19, -187500.02, -182034.81, -187500.02, -187500.02, 0.00, 0.00, 0.00
72, -152034.64, -187500.02, -132794.02, -124708.91, -187500.02, -181854.92, -187500.02, -187500.02, 0.00, 0.00, 0.00
73, -152281.61, -187500.02, -132857.89, -124675.14, -187500.02, -181793.08, -187500.02, -187500.02, 0.00, 0.00, 0.00
74, -151571.98, -187500.02, -132679.61, -124768.22, -187500.02, -181964.22, -187500.02, -187500.02, 0.00, 0.00, 0.00
75, -151251.14, -187500.02, -132596.20, -124810.62, -187500.02, -182041.39, -187500.02, -187500.02, 0.00, 0.00, 0.00
76, -151909.69, -187500.02, -132759.45, -124724.02, -187500.02, -181881.72, -187500.02, -187500.02, 0.00, 0.00, 0.00
77, -152340.52, -187500.02, -132869.03, -124668.17, -187500.02, -181778.28, -187500.02, -187500.02, 0.00, 0.00, 0.00
78, -151725.77, -187500.02, -132715.02, -124748.14, -187500.02, -181926.47, -187500.02, -187500.02, 0.00, 0.00, 0.00
79, -151236.28, -187500.02, -132589.02, -124810.82, -187500.02, -182043.00, -187500.02, -187500.02, -0.00, 0.90, 0.41
80, -151772.59, -187500.02, -132718.23, -124736.38, -187500.02, -181909.17, -187500.02, -187500.02, 0.00, 0.00, 0.00
81, -152348.08, -187500.02, -132865.56, -124661.38, -187500.02, -181771.84, -187500.02, -187500.02, 0.00, 0.00, 0.00
82, -151880.77, -187500.02, -132751.34, -124727.13, -187500.02, -181890.59, -187500.02, -187500.02, 0.00, 0.00, 0.00
83, -151258.70, -187500.02, -132592.31, -124807.11, -187500.02, -182039.39, -187500.02, -187500.02, 0.00, 0.00, 0.00
84, -151640.84, -187500.02, -132684.17, -124754.67, -187500.02, -181944.78, -187500.02, -187500.02, 0.00, 0.00, 0.00
85, -152321.92, -187500.02, -132855.14, -124662.73, -187500.02, -181778.28, -187500.02, -187500.02, 0.00, 0.00, 0.00
86, -152020.64, -187500.02, -132780.38, -124701.43, -187500.02, -181850.81, -187500.02, -187500.02, 0.00, 0.00, 0.00
87, -151309.13, -187500.02, -132597.72, -124793.05, -187500.02, -182021.27, -187500.02, -187500.02, 0.00, 0.00, 0.00
88, -151511.08, -187500.02, -132642.78, -124762.72, -187500.02, -181968.42, -187500.02, -187500.02, 0.00, 0.00, 0.00
89, -152252.64, -187500.02, -132828.56, -124662.27, -187500.02, -181786.80, -187500.02, -187500.02, -0.01, 0.91, 0.41
90, -152144.19, -187500.02, -132802.97, -124675.05, -187500.02, -181812.02, -187500.02, -187500.02, 0.00, 0.00, 0.00
91, -151386.50, -187500.02, -132612.58, -124775.46, -187500.02, -181996.41, -187500.02, -187500.02, 0.00, 0.00, 0.00
92, -151404.88, -187500.02, -132612.25, -124772.98, -187500.02, -181991.73, -187500.02, -187500.02, 0.00, 0.00, 0.00
93, -152163.39, -187500.02, -132802.34, -124673.02, -187500.02, -181808.44, -187500.02, -187500.02, 0.00, 0.00, 0.00
94, -152252.41, -187500.02, -132825.70, -124657.46, -187500.02, -181782.94, -187500.02, -187500.02, 0.00, 0.00, 0.00
95, -151500.05, -187500.02, -132635.77, -124754.98, -187500.02, -181963.36, -187500.02, -187500.02, 0.00, 0.00, 0.00
96, -151325.75, -187500.02, -132589.14, -124778.97, -187500.02, -182006.09, -187500.02, -187500.02, 0.00, 0.00, 0.00
97, -152051.30, -187500.02, -132769.17, -124684.33, -187500.02, -181831.34, -187500.02, -187500.02, 0.00, 0.00, 0.00
98, -152339.56, -187500.02, -132847.23, -124649.57, -187500.02, -181765.19, -187500.02, -187500.02, 0.00, 0.00, 0.00
99, -151642.39, -187500.02, -132673.45, -124740.88, -187500.02, -181933.31, -187500.02, -187500.02, 0.00, 0.91, 0.41
100, -151277.47, -187500.02, -132575.33, -124783.82, -187500.02, -182015.61, -187500.02, -187500.02, 0.00, 0.00, 0.00
101, -151908.44, -187500.02, -132727.47, -124695.53, -187500.02, -181857.45, -187500.02, -187500.02, 0.00, 0.00, 0.00
102, -152368.58, -187500.02, -132841.05, -124629.77, -187500.02, -181741.06, -187500.02, -187500.02, 0.00, 0.00, 0.00
103, -151779.50, -187500.02, -132694.28, -124706.39, -187500.02, -181882.95, -187500.02, -187500.02, 0.00, 0.00, 0.00
104, -151255.14, -187500.02, -132559.91, -124773.42, -187500.02, -182007.56, -187500.02, -187500.02, 0.00, 0.00, 0.00
105, -151766.19, -187500.02, -132686.66, -124708.78, -187500.02, -181887.25, -187500.02, -187500.02, 0.00, 0.00, 0.00
106, -152369.83, -187500.02, -132840.80, -124629.91, -187500.02, -181742.72, -187500.02, -187500.02, 0.00, 0.00, 0.00
107, -151932.72, -187500.02, -132732.81, -124688.11, -187500.02, -181849.97, -187500.02, -187500.02, 0.00, 0.00, 0.00
108, -151283.44, -187500.02, -132567.45, -124771.44, -187500.02, -182005.58, -187500.02, -187500.02, -0.00, 0.91, 0.41
109, -151630.81, -187500.02, -132653.11, -124727.45, -187500.02, -181924.80, -187500.02, -187500.02, 0.00, 0.00, 0.00
110, -152330.64, -187500.02, -132830.88, -124635.76, -187500.02, -181757.86, -187500.02, -187500.02, 0.00, 0.00, 0.00
111, -152065.66, -187500.02, -132765.89, -124668.21, -187500.02, -181820.81, -187500.02, -187500.02, 0.00, 0.00, 0.00
112, -151335.56, -187500.02, -132577.95, -124760.10, -187500.02, -181994.25, -187500.02, -187500.02, 0.00, 0.00, 0.00
113, -151496.63, -187500.02, -132613.25, -124736.27, -187500.02, -181953.61, -187500.02, -187500.02, 0.00, 0.00, 0.00
114, -152245.97, -187500.02, -132803.36, -124637.79, -187500.02, -181774.80, -187500.02, -187500.02, 0.00, 0.00, 0.00
115, -152177.91, -187500.02, -132789.09, -124644.90, -187500.02, -181791.36, -187500.02, -187500.02, 0.00, 0.00, 0.00
116, -151408.05, -187500.02, -132591.59, -124739.18, -187500.02, -181971.95, -187500.02, -187500.02, 0.00, 0.00, 0.00
117, -151382.23, -187500.02, -132580.98, -124743.16, -187500.02, -181980.92, -187500.02, -187500.02, 0.00, 0.00, 0.00
118, -152131.88, -187500.02, -132767.66, -124642.35, -187500.02, -181800.08, -187500.02, -187500.02, -0.00, 0.91, 0.41
119, -152263.50, -187500.02, -132803.98, -124622.59, -187500.02, -181768.05, -187500.02, -187500.02, 0.00, 0.00, 0.00
120, -151511.58, -187500.02, -132614.50, -124718.08, -187500.02, -181948.27, -187500.02, -187500.02, 0.00, 0.00, 0.00
121, -151288.16, -187500.02, -132553.91, -124744.95, -187500.02, -182001.23, -187500.02, -187500.02, 0.00, 0.00, 0.00
122, -151995.56, -187500.02, -132729.48, -124653.08, -187500.02, -181834.09, -187500.02, -187500.02, 0.00, 0.00, 0.00
123, -152317.56, -187500.02, -132812.94, -124608.22, -187500.02, -181756.02, -187500.02, -187500.02, 0.00, 0.00, 0.00
124, -151636.53, -187500.02, -132644.83, -124697.45, -187500.02, -181922.55, -187500.02, -187500.02, 0.00, 0.00, 0.00
125, -151232.84, -187500.02, -132539.31, -124747.41, -187500.02, -182018.52, -187500.02, -187500.02, 0.00, 0.00, 0.00
126, -151838.17, -187500.02, -132686.03, -124663.09, -187500.02, -181869.41, -187500.02, -187500.02, 0.00, 0.00, 0.00
127, -152332.88, -187500.02, -132812.61, -124598.03, -187500.02, -181751.97, -187500.02, -187500.02, 0.00, 0.00, 0.00
128, -151771.77, -187500.02, -132674.75, -124672.59, -187500.02, -181890.31, -187500.02, -187500.02, 0.00, 0.91, 0.41
129, -151214.83, -187500.02, -132531.77, -124742.65, -187500.02, -182023.17, -187500.02, -187500.02, 0.00, 0.00, 0.00
130, -151685.50, -187500.02, -132643.34, -124675.73, -187500.02, -181905.78, -187500.02, -187500.02, 0.00, 0.00, 0.00
131, -152310.80, -187500.02, -132803.27, -124593.56, -187500.02, -181756.83, -187500.02, -187500.02, 0.00, 0.00, 0.00
132, -151907.86, -187500.02, -132704.20, -124646.16, -187500.02, -181855.63, -187500.02, -187500.02, 0.00, 0.00, 0.00
133, -151232.56, -187500.02, -132529.86, -124728.67, -187500.02, -182013.06, -187500.02, -187500.02, 0.00, 0.00, 0.00
134, -151538.34, -187500.02, -132602.91, -124687.10, -187500.02, -181938.77, -187500.02, -187500.02, 0.00, 0.00, 0.00
135, -152251.16, -187500.02, -132781.31, -124589.45, -187500.02, -181763.80, -187500.02, -187500.02, 0.00, 0.00, 0.00
136, -152026.75, -187500.02, -132726.48, -124615.73, -187500.02, -181815.81, -187500.02, -187500.02, 0.00, 0.00, 0.00
137, -151286.69, -187500.02, -132538.70, -124712.54, -187500.02, -181995.36, -187500.02, -187500.02, 0.00, 0.00, 0.00
138, -151406.44, -187500.02, -132563.86, -124694.74, -187500.02, -181965.25, -187500.02, -187500.02, 0.00, 0.90, 0.41
139, -152158.02, -187500.02, -132752.55, -124593.11, -187500.02, -181782.44, -187500.02, -187500.02, 0.00, 0.00, 0.00
140, -152133.30, -187500.02, -132748.17, -124593.18, -187500.02, -181786.63, -187500.02, -187500.02, 0.00, 0.00, 0.00
141, -151365.88, -187500.02, -132554.61, -124691.93, -187500.02, -181971.27, -187500.02, -187500.02, 0.00, 0.00, 0.00
142, -151295.64, -187500.02, -132532.89, -124701.18, -187500.02, -181989.66, -187500.02, -187500.02, 0.00, 0.00, 0.00
143, -152038.89, -187500.02, -132717.50, -124600.76, -187500.02, -181809.17, -187500.02, -187500.02, 0.00, 0.00, 0.00
144, -152209.61, -187500.02, -132761.98, -124573.17, -187500.02, -181764.41, -187500.02, -187500.02, 0.00, 0.00, 0.00
145, -151470.97, -187500.02, -132576.38, -124668.13, -187500.02, -181942.45, -187500.02, -187500.02, 0.00, 0.00, 0.00
146, -151209.69, -187500.02, -132508.56, -124703.22, -187500.02, -182007.98, -187500.02, -187500.02, 0.00, 0.00, 0.00
147, -151899.14, -187500.02, -132677.58, -124610.39, -187500.02, -181840.83, -187500.02, -187500.02, 0.00, 0.00, 0.00
148, -152256.53, -187500.02, -132766.67, -124556.25, -187500.02, -181748.69, -187500.02, -187500.02, 0.00, 0.90, 0.41
149, -151593.19, -187500.02, -132600.94, -124640.23, -187500.02, -181907.59, -187500.02, -187500.02, 0.00, 0.00, 0.00
150, -151154.31, -187500.02, -132488.08, -124696.91, -187500.02, -182014.25, -187500.02, -187500.02, 0.00, 0.00, 0.00
151, -151735.13, -187500.02, -132631.78, -124620.25, -187500.02, -181875.84, -187500.02, -187500.02, 0.00, 0.00, 0.00
152, -152259.45, -187500.02, -132765.14, -124550.15, -187500.02, -181750.61, -187500.02, -187500.02, 0.00, 0.00, 0.00
153, -151724.17, -187500.02, -132629.91, -124615.91, -187500.02, -181877.39, -187500.02, -187500.02, 0.00, 0.00, 0.00
154, -151135.78, -187500.02, -132478.97, -124689.29, -187500.02, -182017.64, -187500.02, -187500.02, 0.00, 0.00, 0.00
155, -151570.55, -187500.02, -132584.03, -124629.61, -187500.02, -181912.44, -187500.02, -187500.02, 0.00, 0.00, 0.00
156, -152211.66, -187500.02, -132745.33, -124540.36, -187500.02, -181754.83, -187500.02, -187500.02, 0.00, 0.00, 0.00
157, -151844.20, -187500.02, -132653.75, -124586.54, -187500.02, -181844.17, -187500.02, -187500.02, 0.00, 0.00, 0.00
158, -151151.97, -187500.02, -132477.91, -124676.02, -187500.02, -182012.42, -187500.02, -187500.02, 0.00, 0.90, 0.41
159, -151416.75, -187500.02, -132541.53, -124641.39, -187500.02, -181950.92, -187500.02, -187500.02, 0.00, 0.00, 0.00
160, -152140.97, -187500.02, -132724.25, -124544.79, -187500.02, -181777.34, -187500.02, -187500.02, 0.00, 0.00, 0.00
161, -151956.14, -187500.02, -132679.09, -124564.57, -187500.02, -181820.02, -187500.02, -187500.02, 0.00, 0.00, 0.00
162, -151199.72, -187500.02, -132486.55, -124659.97, -187500.02, -182000.91, -187500.02, -187500.02, 0.00, 0.00, 0.00
163, -151274.41, -187500.02, -132498.75, -124645.84, -187500.02, -181980.41, -187500.02, -187500.02, 0.00, 0.00, 0.00
164, -152029.98, -187500.02, -132687.38, -124544.41, -187500.02, -181798.67, -187500.02, -187500.02, 0.00, 0.00, 0.00
165, -152049.53, -187500.02, -132695.73, -124541.08, -187500.02, -181795.69, -187500.02, -187500.02, 0.00, 0.00, 0.00
166, -151271.61, -187500.02, -132498.61, -124636.27, -187500.02, -181978.00, -187500.02, -187500.02, 0.00, 0.00, 0.00
167, -151158.30, -187500.02, -132465.28, -124650.55, -187500.02, -182006.81, -187500.02, -187500.02, 0.00, 0.00, 0.00
168, -151907.30, -187500.02, -132650.45, -124553.93, -187500.02, -181830.88, -187500.02, -187500.02, -0.01, 0.91, 0.41
169, -152119.98, -187500.02, -132705.78, -124521.81, -187500.02, -181777.14, -187500.02, -187500.02, 0.00, 0.00, 0.00
170, -151370.56, -187500.02, -132521.83, -124615.17, -187500.02, -181953.05, -187500.02, -187500.02, 0.00, 0.00, 0.00
171, -151063.88, -187500.02, -132444.41, -124656.86, -187500.02, -182029.88, -187500.02, -187500.02, 0.00, 0.00, 0.00
172, -151761.67, -187500.02, -132608.81, -124566.55, -187500.02, -181866.80, -187500.02, -187500.02, 0.00, 0.00, 0.00
173, -152175.30, -187500.02, -132711.41, -124511.57, -187500.02, -181769.13, -187500.02, -187500.02, 0.00, 0.00, 0.00
174, -151504.95, -187500.02, -132548.91, -124590.92, -187500.02, -181921.53, -187500.02, -187500.02, 0.00, 0.00, 0.00
175, -151012.56, -187500.02, -132424.78, -124650.18, -187500.02, -182034.75, -187500.02, -187500.02, 0.00, 0.00, 0.00
176, -151593.03, -187500.02, -132561.27, -124576.05, -187500.02, -181900.14, -187500.02, -187500.02, 0.00, 0.00, 0.00
177, -152170.92, -187500.02, -132702.06, -124500.60, -187500.02, -181763.94, -187500.02, -187500.02, 0.00, 0.00, 0.00
178, -151648.63, -187500.02, -132578.31, -124566.52, -187500.02, -181886.78, -187500.02, -187500.02, 0.00, 0.90, 0.41
179, -151011.80, -187500.02, -132422.61, -124646.78, -187500.02, -182036.75, -187500.02, -187500.02, 0.00, 0.00, 0.00
180, -151435.13, -187500.02, -132519.48, -124590.95, -187500.02, -181937.41, -187500.02, -187500.02, 0.00, 0.00, 0.00
181, -152130.14, -187500.02, -132689.56, -124500.98, -187500.02, -181774.70, -187500.02, -187500.02, 0.00, 0.00, 0.00
182, -151785.81, -187500.02, -132607.06, -124542.15, -187500.02, -181853.70, -187500.02, -187500.02, 0.00, 0.00, 0.00
183, -151042.83, -187500.02, -132421.16, -124630.40, -187500.02, -182022.14, -187500.02, -187500.02, 0.00, 0.00, 0.00
184, -151281.30, -187500.02, -132474.72, -124600.11, -187500.02, -181967.77, -187500.02, -187500.02, 0.00, 0.00, 0.00
185, -152055.30, -187500.02, -132667.23, -124506.77, -187500.02, -181793.81, -187500.02, -187500.02, 0.00, 0.00, 0.00
186, -151912.44, -187500.02, -132637.97, -124525.97, -187500.02, -181829.64, -187500.02, -187500.02, 0.00, 0.00, 0.00
187, -151118.94, -187500.02, -132440.81, -124621.39, -187500.02, -182010.89, -187500.02, -187500.02, -0.00, 0.91, 0.41
188, -151160.39, -187500.02, -132444.98, -124615.30, -187500.02, -182001.73, -187500.02, -187500.02, 0.00, 0.00, 0.00
189, -151943.33, -187500.02, -132632.78, -124511.46, -187500.02, -181815.47, -187500.02, -187500.02, 0.00, 0.00, 0.00
190, -152005.88, -187500.02, -132650.16, -124500.04, -187500.02, -181798.52, -187500.02, -187500.02, 0.00, 0.00, 0.00
191, -151213.44, -187500.02, -132457.08, -124599.15, -187500.02, -181983.78, -187500.02, -187500.02, 0.00, 0.00, 0.00
192, -151055.97, -187500.02, -132412.56, -124618.26, -187500.02, -182021.06, -187500.02, -187500.02, 0.00, 0.00, 0.00
193, -151814.56, -187500.02, -132596.38, -124523.22, -187500.02, -181846.48, -187500.02, -187500.02, 0.00, 0.00, 0.00
194, -152081.52, -187500.02, -132667.19, -124489.80, -187500.02, -181786.23, -187500.02, -187500.02, 0.00, 0.00, 0.00
195, -151343.91, -187500.02, -132488.53, -124583.39, -187500.02, -181960.42, -187500.02, -187500.02, 0.00, 0.00, 0.00
196, -150990.23, -187500.02, -132397.31, -124627.34, -187500.02, -182043.52, -187500.02, -187500.02, 0.00, 0.00, 0.00
197, -151666.02, -187500.02, -132559.19, -124543.18, -187500.02, -181888.41, -187500.02, -187500.02, 0.01, 0.91, 0.41
198, -152115.55, -187500.02, -132669.38, -124481.78, -187500.02, -181779.63, -187500.02, -187500.02, 0.00, 0.00, 0.00
199, -151480.27, -187500.02, -132515.31, -124559.16, -187500.02, -181926.00, -187500.02, -187500.02, 0.00, 0.00, 0.00
200, -150959.36, -187500.02, -132385.17, -124625.16, -187500.02, -182048.42, -187500.02, -187500.02, 0.00, 0.00, 0.00
201, -151504.83, -187500.02, -132514.08, -124555.80, -187500.02, -181920.80, -187500.02, -187500.02, 0.00, 0.00, 0.00
202, -152111.03, -187500.02, -132661.64, -124476.59, -187500.02, -181776.83, -187500.02, -187500.02, 0.00, 0.00, 0.00
203, -151632.94, -187500.02, -132546.06, -124536.63, -187500.02, -181888.55, -187500.02, -187500.02, 0.00, 0.00, 0.00
204, -150974.67, -187500.02, -132382.92, -124618.34, -187500.02, -182040.77, -187500.02, -187500.02, 0.00, 0.00, 0.00
205, -151358.56, -187500.02, -132472.17, -124569.30, -187500.02, -181949.72, -187500.02, -187500.02, 0.00, 0.00, 0.00
206, -152074.63, -187500.02, -132649.81, -124480.46, -187500.02, -181782.75, -187500.02, -187500.02, 0.00, 0.00, 0.00
207, -151783.42, -187500.02, -132579.86, -124518.03, -187500.02, -181849.86, -187500.02, -187500.02, 0.00, 0.91, 0.40
208, -151042.75, -187500.02, -132396.02, -124612.11, -187500.02, -182021.47, -187500.02, -187500.02, 0.00, 0.00, 0.00
209, -151242.22, -187500.02, -132442.06, -124589.31, -187500.02, -181974.89, -187500.02, -187500.02, 0.00, 0.00, 0.00
210, -152016.47, -187500.02, -132630.55, -124489.84, -187500.02, -181788.98, -187500.02, -187500.02, 0.00, 0.00, 0.00
211, -151923.59, -187500.02, -132608.41, -124499.81, -187500.02, -181805.22, -187500.02, -187500.02, 0.00, 0.00, 0.00
212, -151146.83, -187500.02, -132417.81, -124601.98, -187500.02, -181987.98, -187500.02, -187500.02, 0.00, 0.00, 0.00
213, -151153.39, -187500.02, -132417.25, -124605.70, -187500.02, -181988.61, -187500.02, -187500.02, 0.00, 0.00, 0.00
214, -151934.02, -187500.02, -132608.94, -124506.50, -187500.02, -181803.73, -187500.02, -187500.02, 0.00, 0.00, 0.00
215, -152046.03, -187500.02, -132637.14, -124489.00, -187500.02, -181772.36, -187500.02, -187500.02, 0.00, 0.00, 0.00
216, -151268.84, -187500.02, -132443.38, -124583.73, -187500.02, -181949.16, -187500.02, -187500.02, 0.00, 0.00, 0.00
217, -151070.86, -187500.02, -132387.34, -124605.98, -187500.02, -181991.63, -187500.02, -187500.02, 0.01, 0.91, 0.41
218, -151810.88, -187500.02, -132566.31, -124511.93, -187500.02, -181817.98, -187500.02, -187500.02, 0.00, 0.00, 0.00
219, -152119.06, -187500.02, -132646.88, -124472.99, -187500.02, -181745.97, -187500.02, -187500.02, 0.00, 0.00, 0.00
220, -151409.64, -187500.02, -132474.84, -124564.28, -187500.02, -181913.42, -187500.02, -187500.02, 0.00, 0.00, 0.00
221, -151026.95, -187500.02, -132377.27, -124613.48, -187500.02, -182004.06, -187500.02, -187500.02, 0.00, 0.00, 0.00
222, -151680.77, -187500.02, -132534.13, -124531.02, -187500.02, -181852.47, -187500.02, -187500.02, 0.00, 0.00, 0.00
223, -152169.64, -187500.02, -132657.11, -124467.83, -187500.02, -181737.02, -187500.02, -187500.02, 0.00, 0.00, 0.00
224, -151569.36, -187500.02, -132512.95, -124543.29, -187500.02, -181876.61, -187500.02, -187500.02, 0.00, 0.00, 0.00
225, -151022.02, -187500.02, -132375.31, -124612.58, -187500.02, -182004.42, -187500.02, -187500.02, 0.00, 0.00, 0.00
226, -151534.73, -187500.02, -132495.48, -124546.42, -187500.02, -181883.16, -187500.02, -187500.02, 0.00, 0.00, 0.00
227, -152168.39, -187500.02, -132652.55, -124465.98, -187500.02, -181735.02, -187500.02, -187500.02, 0.00, 0.91, 0.41
228, -151727.72, -187500.02, -132547.78, -124522.13, -187500.02, -181838.00, -187500.02, -187500.02, 0.00, 0.00, 0.00
229, -151045.73, -187500.02, -132379.13, -124606.21, -187500.02, -181994.14, -187500.02, -187500.02, 0.00, 0.00, 0.00
230, -151389.70, -187500.02, -132458.47, -124562.09, -187500.02, -181912.08, -187500.02, -187500.02, 0.00, 0.00, 0.00
231, -152121.30, -187500.02, -132637.30, -124467.63, -187500.02, -181738.36, -187500.02, -187500.02, 0.00, 0.00, 0.00
232, -151873.22, -187500.02, -132578.47, -124499.64, -187500.02, -181795.98, -187500.02, -187500.02, 0.00, 0.00, 0.00
233, -151117.86, -187500.02, -132391.70, -124595.02, -187500.02, -181971.05, -187500.02, -187500.02, 0.00, 0.00, 0.00
234, -151271.48, -187500.02, -132425.59, -124575.52, -187500.02, -181933.78, -187500.02, -187500.02, 0.00, 0.00, 0.00
235, -152051.83, -187500.02, -132615.11, -124474.76, -187500.02, -181748.58, -187500.02, -187500.02, 0.00, 0.00, 0.00
236, -152009.31, -187500.02, -132608.94, -124482.83, -187500.02, -181760.52, -187500.02, -187500.02, 0.00, 0.00, 0.00
237, -151227.41, -187500.02, -132415.34, -124582.23, -187500.02, -181942.13, -187500.02, -187500.02, -0.00, 0.91, 0.41
238, -151187.34, -187500.02, -132400.16, -124588.10, -187500.02, -181950.28, -187500.02, -187500.02, 0.00, 0.00, 0.00
239, -151963.92, -187500.02, -132589.58, -124488.93, -187500.02, -181766.56, -187500.02, -187500.02, 0.00, 0.00, 0.00
240, -152125.47, -187500.02, -132630.69, -124466.71, -187500.02, -181725.31, -187500.02, -187500.02, 0.00, 0.00, 0.00
241, -151367.95, -187500.02, -132445.69, -124565.04, -187500.02, -181902.47, -187500.02, -187500.02, 0.00, 0.00, 0.00
242, -151135.38, -187500.02, -132384.70, -124597.05, -187500.02, -181956.47, -187500.02, -187500.02, 0.00, 0.00, 0.00
243, -151867.41, -187500.02, -132562.09, -124505.91, -187500.02, -181783.67, -187500.02, -187500.02, 0.00, 0.00, 0.00
244, -152226.86, -187500.02, -132656.34, -124463.80, -187500.02, -181699.66, -187500.02, -187500.02, 0.00, 0.00, 0.00
245, -151544.17, -187500.02, -132488.98, -124549.64, -187500.02, -181854.45, -187500.02, -187500.02, 0.00, 0.00, 0.00
246, -151129.73, -187500.02, -132383.66, -124601.07, -187500.02, -181947.02, -187500.02, -187500.02, 0.00, 0.00, 0.00
247, -151760.22, -187500.02, -132532.73, -124517.02, -187500.02, -181792.78, -187500.02, -187500.02, 0.00, 0.91, 0.41
248, -152288.36, -187500.02, -132663.13, -124446.82, -187500.02, -181661.81, -187500.02, -187500.02, 0.00, 0.00, 0.00
249, -151725.47, -187500.02, -132528.06, -124517.74, -187500.02, -181788.66, -187500.02, -187500.02, 0.00, 0.00, 0.00
