%OpenBCI Raw EEG Data
%
%Sample Rate = 250.0 Hz
%First Column = SampleIndex
%Other Columns = EEG data in microvolts followed by Accel Data (in G) interleaved with Aux Data
0, -29668.12, -64199.73, -32493.00, -58863.38, -174985.09, -174015.39, -182177.03, -179302.06, 0.01, 0.91, 0.39
1, -29700.64, -64694.48, -32276.25, -58305.73, -174694.83, -174076.52, -181980.83, -179208.70, 0.00, 0.00, 0.00
2, -29712.87, -63914.72, -32602.72, -58983.66, -175155.73, -173901.11, -182274.95, -179344.61, 0.00, 0.00, 0.00
3, -29659.96, -63102.79, -32918.82, -59748.98, -175608.59, -173751.19, -182579.48, -179485.48, 0.00, 0.00, 0.00
4, -29637.05, -63946.35, -32545.77, -58993.72, -175085.98, -173926.42, -182245.33, -179324.63, 0.00, 0.00, 0.00
5, -29658.06, -64647.99, -32240.36, -58257.65, -174669.94, -174037.30, -181966.80, -179189.38, 0.00, 0.00, 0.00
6, -29678.49, -64075.52, -32483.39, -58733.43, -175014.38, -173899.27, -182182.94, -179290.48, 0.00, 0.00, 0.00
7, -29638.72, -63081.83, -32884.45, -59658.75, -175584.53, -173711.73, -182563.55, -179472.45, 0.02, 0.91, 0.38
8, -29596.99, -63691.61, -32610.12, -59148.61, -175198.58, -173860.56, -182322.48, -179362.89, 0.00, 0.00, 0.00
9, -29605.80, -64560.08, -32231.33, -58285.14, -174677.89, -174017.73, -181976.59, -179198.20, 0.00, 0.00, 0.00
10, -29625.54, -64201.27, -32376.30, -58551.38, -174888.30, -173921.78, -182102.11, -179252.47, 0.00, 0.00, 0.00
11, -29595.74, -63111.89, -32816.23, -59552.73, -175515.13, -173709.03, -182513.70, -179441.20, 0.00, 0.00, 0.00
12, -29540.20, -63423.05, -32664.17, -59335.07, -175302.88, -173807.63, -182387.08, -179380.03, 0.00, 0.00, 0.00
13, -29536.26, -64421.41, -32231.97, -58393.59, -174702.72, -174010.00, -181991.89, -179192.66, 0.00, 0.00, 0.00
14, -29555.35, -64290.14, -32281.01, -58459.02, -174779.42, -173969.70, -182030.80, -179208.30, 0.00, 0.00, 0.00
15, -29533.34, -63186.90, -32729.37, -59481.48, -175416.28, -173762.14, -182445.33, -179401.23, 0.00, 0.00, 0.00
16, -29467.89, -63169.98, -32712.65, -59582.80, -175396.33, -173807.25, -182443.88, -179401.78, 0.01, 0.91, 0.39
17, -29451.66, -64234.46, -32251.58, -58621.02, -174753.27, -174038.44, -182021.89, -179202.05, 0.00, 0.00, 0.00
18, -29465.48, -64333.95, -32201.96, -58490.96, -174693.50, -174056.56, -181971.05, -179173.83, 0.00, 0.00, 0.00
19, -29446.21, -63291.67, -32624.65, -59483.58, -175292.36, -173875.69, -182355.88, -179347.98, 0.00, 0.00, 0.00
20, -29370.64, -62941.44, -32741.15, -59912.53, -175462.91, -173873.03, -182477.84, -179402.67, 0.00, 0.00, 0.00
21, -29343.91, -63996.11, -32281.01, -58979.55, -174822.16, -174113.09, -182058.42, -179203.03, 0.00, 0.00, 0.00
22, -29354.97, -64325.64, -32130.65, -58619.59, -174624.88, -174178.72, -181916.08, -179131.14, 0.00, 0.00, 0.00
23, -29348.06, -63420.68, -32504.96, -59478.01, -175150.81, -174036.91, -182251.22, -179284.20, 0.00, 0.00, 0.00
24, -29275.93, -62774.09, -32750.22, -60163.85, -175501.38, -173985.34, -182488.00, -179393.50, 0.00, 0.00, 0.00
25, -29241.80, -63745.99, -32326.19, -59321.19, -174912.31, -174216.52, -182103.92, -179212.70, 0.00, 0.00, 0.00
26, -29252.38, -64288.35, -32086.80, -58764.37, -174594.03, -174322.97, -181882.16, -179103.53, 0.02, 0.91, 0.38
27, -29246.14, -63563.71, -32390.38, -59452.93, -175017.95, -174224.11, -182147.06, -179221.20, 0.00, 0.00, 0.00
28, -29170.41, -62678.63, -32746.06, -60368.06, -175516.83, -174146.23, -182478.88, -179375.02, 0.00, 0.00, 0.00
29, -29129.84, -63468.85, -32393.64, -59708.46, -175030.73, -174343.47, -182164.52, -179224.58, 0.00, 0.00, 0.00
30, -29142.79, -64212.67, -32066.84, -58963.25, -174593.89, -174479.41, -181865.08, -179078.34, 0.00, 0.00, 0.00
31, -29151.05, -63692.97, -32292.79, -59461.81, -174906.63, -174421.31, -182057.67, -179166.33, 0.00, 0.00, 0.00
32, -29085.86, -62648.52, -32720.43, -60525.55, -175497.67, -174319.27, -182450.47, -179348.45, 0.00, 0.00, 0.00
33, -29033.75, -63171.37, -32478.40, -60122.52, -175165.86, -174464.33, -182239.64, -179248.27, 0.00, 0.00, 0.00
34, -29052.71, -64093.00, -32073.88, -59207.55, -174628.78, -174606.88, -181874.03, -179071.67, 0.00, 0.00, 0.00
35, -29064.58, -63789.91, -32204.79, -59473.39, -174815.84, -174566.69, -181979.88, -179114.89, 0.00, 0.00, 0.00
36, -29006.91, -62689.38, -32668.44, -60592.89, -175445.56, -174453.27, -182394.05, -179303.30, 0.02, 0.93, 0.40
37, -28943.41, -62914.88, -32551.60, -60473.20, -175285.75, -174549.66, -182295.66, -179254.55, 0.00, 0.00, 0.00
38, -28954.18, -63956.63, -32094.91, -59425.71, -174674.41, -174731.05, -181887.11, -179061.20, 0.00, 0.00, 0.00
39, -28967.01, -63896.62, -32120.64, -59394.04, -174707.91, -174747.09, -181898.63, -179063.78, 0.00, 0.00, 0.00
40, -28919.29, -62792.71, -32593.58, -60473.07, -175335.28, -174656.75, -182312.75, -179255.31, 0.00, 0.00, 0.00
41, -28849.08, -62689.91, -32619.62, -60681.27, -175368.41, -174725.75, -182347.06, -179267.28, 0.00, 0.00, 0.00
42, -28861.64, -63782.42, -32133.92, -59658.68, -174727.17, -174893.47, -181913.28, -179057.72, 0.00, 0.00, 0.00
43, -28884.04, -63952.96, -32055.48, -59440.08, -174634.78, -174919.52, -181836.84, -179015.36, 0.00, 0.00, 0.00
44, -28844.86, -62941.01, -32497.24, -60418.02, -175215.09, -174848.42, -182218.64, -179191.94, 0.00, 0.00, 0.00
45, -28755.21, -62499.07, -32668.32, -60916.53, -175435.17, -174886.66, -182379.14, -179267.73, 0.00, 0.00, 0.00
46, -28760.21, -63560.80, -32192.93, -59935.57, -174809.72, -175049.52, -181964.97, -179071.53, 0.02, 0.92, 0.40
47, -28789.72, -63957.30, -32009.20, -59486.28, -174582.11, -175086.89, -181798.44, -178985.31, 0.00, 0.00, 0.00
48, -28772.62, -63098.50, -32393.02, -60316.38, -175079.53, -175030.30, -182125.52, -179133.20, 0.00, 0.00, 0.00
49, -28690.86, -62378.75, -32696.09, -61062.24, -175471.31, -175051.88, -182400.31, -179262.66, 0.00, 0.00, 0.00
50, -28677.87, -63310.44, -32270.93, -60194.77, -174908.05, -175217.69, -182033.03, -179091.31, 0.00, 0.00, 0.00
51, -28703.48, -63921.94, -31987.89, -59522.71, -174550.73, -175292.80, -181787.30, -178973.36, 0.00, 0.00, 0.00
52, -28688.60, -63242.02, -32294.89, -60168.75, -174947.23, -175274.84, -182046.45, -179092.91, 0.00, 0.00, 0.00
53, -28596.46, -62304.97, -32692.80, -61137.23, -175462.44, -175274.22, -182401.05, -179256.00, 0.00, 0.00, 0.00
54, -28574.74, -63038.24, -32347.82, -60515.49, -175013.73, -175396.28, -182107.02, -179114.83, 0.00, 0.00, 0.00
55, -28609.54, -63852.16, -31971.58, -59680.32, -174540.88, -175458.63, -181780.47, -178956.20, 0.00, 0.00, 0.00
56, -28601.43, -63389.86, -32175.60, -60093.98, -174806.59, -175437.20, -181950.09, -179032.38, 0.02, 0.90, 0.40
57, -28507.77, -62303.72, -32643.31, -61182.73, -175409.28, -175422.81, -182368.19, -179227.48, 0.00, 0.00, 0.00
58, -28465.41, -62762.27, -32422.79, -60834.65, -175119.31, -175528.56, -182187.61, -179146.28, 0.00, 0.00, 0.00
59, -28508.49, -63727.77, -31976.92, -59871.02, -174555.81, -175592.27, -181800.56, -178961.19, 0.00, 0.00, 0.00
60, -28516.85, -63494.17, -32079.36, -60062.55, -174692.94, -175567.52, -181882.11, -178992.58, 0.00, 0.00, 0.00
61, -28427.93, -62371.22, -32572.21, -61186.87, -175324.55, -175533.92, -182313.61, -179189.13, 0.00, 0.00, 0.00
62, -28357.90, -62500.10, -32490.96, -61143.51, -175216.28, -175612.59, -182254.83, -179161.16, 0.00, 0.00, 0.00
63, -28396.75, -63566.57, -31998.58, -60087.88, -174589.38, -175695.36, -181828.16, -178961.09, 0.00, 0.00, 0.00
64, -28414.99, -63572.47, -31992.05, -60026.95, -174585.61, -175685.63, -181818.50, -178951.25, 0.00, 0.00, 0.00
65, -28338.28, -62482.87, -32475.65, -61111.10, -175200.67, -175654.55, -182237.81, -179140.52, 0.00, 0.00, 0.00
66, -28263.80, -62291.92, -32542.37, -61396.77, -175283.22, -175715.22, -182309.41, -179172.47, 0.01, 0.92, 0.41
67, -28312.33, -63393.90, -32030.74, -60343.76, -174634.86, -175790.23, -181866.39, -178963.64, 0.00, 0.00, 0.00
68, -28347.20, -63628.39, -31913.69, -60044.14, -174498.09, -175779.34, -181761.97, -178909.22, 0.00, 0.00, 0.00
69, -28290.71, -62646.62, -32353.28, -61002.09, -175054.36, -175743.00, -182138.30, -179077.45, 0.00, 0.00, 0.00
70, -28197.48, -62117.84, -32568.28, -61594.92, -175325.73, -175778.94, -182338.28, -179166.25, 0.00, 0.00, 0.00
71, -28236.02, -63163.66, -32077.59, -60620.45, -174706.17, -175858.09, -181917.47, -178967.19, 0.00, 0.00, 0.00
72, -28295.52, -63634.18, -31861.45, -60112.15, -174446.39, -175857.00, -181727.55, -178874.67, 0.00, 0.00, 0.00
73, -28265.48, -62821.05, -32233.31, -60918.25, -174912.16, -175817.30, -182038.70, -179010.47, 0.00, 0.00, 0.00
74, -28166.93, -62031.14, -32575.63, -61775.13, -175340.08, -175830.70, -182344.03, -179147.69, 0.00, 0.00, 0.00
75, -28182.40, -62928.36, -32149.99, -60966.62, -174803.31, -175913.97, -181983.36, -178980.92, 0.00, 0.00, 0.00
76, -28242.46, -63603.94, -31827.52, -60241.14, -174414.86, -175919.89, -181706.17, -178847.61, 0.02, 0.90, 0.40
77, -28237.00, -62995.95, -32114.58, -60837.42, -174771.61, -175886.55, -181941.39, -178949.17, 0.00, 0.00, 0.00
78, -28141.94, -62013.91, -32558.58, -61880.40, -175320.53, -175889.38, -182326.77, -179121.16, 0.00, 0.00, 0.00
79, -28133.58, -62691.25, -32235.01, -61306.72, -174913.23, -175977.72, -182054.59, -178994.97, 0.00, 0.00, 0.00
80, -28191.94, -63552.87, -31827.68, -60410.28, -174420.98, -176003.70, -181706.69, -178831.55, 0.00, 0.00, 0.00
81, -28191.96, -63167.64, -32015.61, -60770.95, -174651.58, -175978.45, -181854.34, -178893.86, 0.00, 0.00, 0.00
82, -28094.73, -62077.18, -32524.78, -61906.66, -175266.81, -175976.22, -182283.95, -179085.05, 0.00, 0.00, 0.00
83, -28054.43, -62457.79, -32338.53, -61626.68, -175026.58, -176065.36, -182129.67, -179013.94, 0.00, 0.00, 0.00
84, -28104.61, -63454.90, -31857.45, -60597.34, -174449.19, -176104.92, -181721.05, -178822.11, 0.00, 0.00, 0.00
85, -28110.96, -63300.99, -31934.94, -60706.69, -174544.25, -176084.00, -181772.34, -178839.30, 0.00, 0.00, 0.00
86, -28025.22, -62199.89, -32469.42, -61857.15, -175176.50, -176075.56, -182211.97, -179036.33, 0.01, 0.91, 0.38
87, -27962.08, -62250.54, -32434.41, -61905.08, -175122.94, -176150.22, -182186.92, -179023.41, 0.00, 0.00, 0.00
88, -28014.20, -63319.76, -31907.54, -60818.36, -174496.80, -176201.41, -181746.25, -178818.47, 0.00, 0.00, 0.00
89, -28038.34, -63394.60, -31873.68, -60686.95, -174461.03, -176183.73, -181704.50, -178794.19, 0.00, 0.00, 0.00
90, -27976.31, -62352.83, -32389.55, -61770.50, -175060.98, -176168.11, -182118.30, -178978.33, 0.00, 0.00, 0.00
91, -27906.76, -62052.06, -32514.05, -62155.77, -175198.67, -176225.39, -182230.34, -179026.16, 0.00, 0.00, 0.00
92, -27967.37, -63110.82, -31973.95, -61087.20, -174565.63, -176287.52, -181791.06, -178824.56, 0.00, 0.00, 0.00
93, -28032.71, -63388.25, -31820.66, -60719.70, -174399.39, -176269.50, -181663.86, -178762.41, 0.00, 0.00, 0.00
94, -28024.97, -62469.03, -32282.18, -61658.98, -174925.48, -176240.45, -182026.56, -178921.81, 0.00, 0.00, 0.00
95, -27972.96, -61882.79, -32564.86, -62337.89, -175238.13, -176277.25, -182259.22, -179024.77, 0.00, 0.00, 0.00
96, -28026.58, -62876.71, -32057.70, -61370.04, -174645.48, -176342.30, -181850.50, -178837.23, 0.01, 0.91, 0.39
97, -28109.24, -63392.99, -31790.39, -60765.79, -174348.50, -176322.67, -181632.14, -178732.44, 0.00, 0.00, 0.00
98, -28149.88, -62659.80, -32172.12, -61504.31, -174771.91, -176278.50, -181920.94, -178855.20, 0.00, 0.00, 0.00
99, -28135.91, -61841.98, -32587.84, -62410.45, -175225.91, -176288.02, -182252.16, -179001.02, 0.00, 0.00, 0.00
100, -28166.91, -62672.66, -32159.87, -61621.39, -174722.64, -176355.55, -181910.81, -178844.39, 0.00, 0.00, 0.00
101, -28243.30, -63396.86, -31794.73, -60810.51, -174311.73, -176351.61, -181615.45, -178707.41, 0.00, 0.00, 0.00
102, -28311.63, -62894.83, -32092.30, -61304.26, -174621.91, -176308.67, -181823.13, -178794.75, 0.00, 0.00, 0.00
103, -28310.70, -61942.63, -32624.07, -62335.91, -175172.61, -176300.50, -182218.34, -178965.98, 0.00, 0.00, 0.00
104, -28288.99, -62553.16, -32332.11, -61793.61, -174804.09, -176377.70, -181973.17, -178852.86, 0.00, 0.00, 0.00
105, -28313.83, -63457.32, -31886.01, -60815.94, -174291.16, -176392.97, -181607.47, -178683.44, 0.01, 0.90, 0.39
106, -28363.16, -63224.61, -32102.16, -61045.20, -174475.97, -176357.41, -181728.66, -178730.72, 0.00, 0.00, 0.00
107, -28372.97, -62303.32, -32750.49, -62104.25, -175086.02, -176346.25, -182162.05, -178919.25, 0.00, 0.00, 0.00
108, -28319.75, -62694.50, -32646.60, -61850.96, -174890.30, -176420.95, -182038.56, -178859.70, 0.00, 0.00, 0.00
109, -28304.95, -63743.04, -32145.25, -60764.80, -174302.83, -176449.98, -181620.59, -178667.56, 0.00, 0.00, 0.00
110, -28333.05, -63731.84, -32297.89, -60721.06, -174360.28, -176423.86, -181648.59, -178673.20, 0.00, 0.00, 0.00
111, -28343.51, -62840.27, -33072.33, -61692.60, -174967.38, -176412.20, -182084.50, -178860.63, 0.00, 0.00, 0.00
112, -28303.05, -62861.57, -33194.95, -61735.43, -174956.98, -176484.98, -182095.67, -178861.80, 0.00, 0.00, 0.00
113, -28300.37, -63815.97, -32594.92, -60659.05, -174330.84, -176548.48, -181657.41, -178661.08, 0.00, 0.00, 0.00
114, -28342.44, -63929.61, -32564.81, -60416.99, -174253.48, -176541.16, -181597.48, -178628.23, 0.00, 0.00, 0.00
115, -28393.44, -63040.59, -33252.22, -61308.33, -174805.19, -176534.36, -182000.69, -178798.77, 0.01, 0.90, 0.39
116, -28389.11, -62701.09, -33527.66, -61681.34, -174976.77, -176605.63, -182151.98, -178862.31, 0.00, 0.00, 0.00
117, -28392.17, -63589.95, -32888.63, -60698.57, -174367.05, -176680.52, -181723.81, -178668.78, 0.00, 0.00, 0.00
118, -28430.43, -63880.37, -32677.31, -60272.24, -174169.69, -176675.33, -181573.30, -178592.83, 0.00, 0.00, 0.00
119, -28483.81, -63156.28, -33279.67, -61028.64, -174654.16, -176670.23, -181919.14, -178738.22, 0.00, 0.00, 0.00
120, -28474.60, -62617.18, -33739.33, -61670.74, -174999.27, -176731.53, -182187.91, -178852.86, 0.00, 0.00, 0.00
121, -28445.86, -63430.38, -33132.48, -60844.17, -174444.11, -176812.31, -181796.36, -178676.16, 0.00, 0.00, 0.00
122, -28463.78, -63894.38, -32763.88, -60253.13, -174131.45, -176811.77, -181560.08, -178564.09, 0.00, 0.00, 0.00
123, -28517.03, -63305.93, -33247.95, -60837.36, -174519.16, -176806.50, -181834.34, -178676.64, 0.00, 0.00, 0.00
124, -28525.29, -62554.68, -33860.59, -61668.89, -174992.41, -176854.78, -182193.69, -178829.42, 0.00, 0.00, 0.00
125, -28491.70, -63200.16, -33366.14, -61032.75, -174536.58, -176932.84, -181873.81, -178684.91, 0.01, 0.90, 0.39
126, -28500.13, -63828.89, -32847.92, -60280.77, -174107.61, -176926.66, -181552.11, -178536.08, 0.00, 0.00, 0.00
127, -28569.69, -63424.91, -33187.36, -60673.56, -174380.56, -176909.78, -181744.53, -178616.67, 0.00, 0.00, 0.00
128, -28610.59, -62557.12, -33898.12, -61628.52, -174940.17, -176937.34, -182164.70, -178799.39, 0.00, 0.00, 0.00
129, -28588.04, -62985.80, -33560.61, -61246.82, -174630.23, -177008.53, -181952.25, -178703.80, 0.00, 0.00, 0.00
130, -28594.29, -63751.80, -32918.93, -60373.33, -174111.91, -177006.66, -181566.36, -178529.88, 0.00, 0.00, 0.00
131, -28661.13, -63523.14, -33085.14, -60543.74, -174256.11, -176971.36, -181660.42, -178564.33, 0.00, 0.00, 0.00
132, -28734.96, -62600.13, -33821.07, -61523.67, -174848.58, -176976.22, -182099.66, -178751.97, 0.00, 0.00, 0.00
133, -28723.78, -62756.81, -33677.59, -61412.91, -174707.63, -177038.95, -182009.52, -178711.28, 0.00, 0.00, 0.00
134, -28712.45, -63607.34, -32949.27, -60455.39, -174119.34, -177042.11, -181571.75, -178516.11, 0.00, 0.00, 0.00
135, -28777.02, -63566.41, -32947.97, -60411.22, -174138.19, -177006.41, -181573.05, -178513.83, 0.01, 0.91, 0.40
136, -28873.69, -62655.98, -33658.95, -61363.74, -174721.44, -177001.69, -182000.69, -178696.31, 0.00, 0.00, 0.00
137, -28876.44, -62530.28, -33731.82, -61546.62, -174761.80, -177059.61, -182044.56, -178711.84, 0.00, 0.00, 0.00
138, -28847.14, -63422.49, -32986.97, -60585.00, -174149.23, -177083.56, -181595.64, -178514.45, 0.00, 0.00, 0.00
139, -28891.10, -63566.77, -32829.05, -60331.85, -174042.44, -177045.72, -181504.56, -178471.14, 0.00, 0.00, 0.00
140, -28998.41, -62735.76, -33472.05, -61179.45, -174578.20, -177030.70, -181893.11, -178637.58, 0.00, 0.00, 0.00
141, -29022.53, -62342.68, -33757.10, -61639.76, -174800.47, -177078.05, -182071.31, -178713.80, 0.00, 0.00, 0.00
142, -28976.51, -63201.66, -33043.16, -60752.46, -174205.52, -177110.17, -181640.80, -178523.75, 0.00, 0.00, 0.00
143, -28998.37, -63536.08, -32728.05, -60305.16, -173975.09, -177074.67, -181459.97, -178440.92, 0.00, 0.00, 0.00
144, -29107.60, -62831.40, -33265.52, -61009.84, -174433.86, -177057.80, -181788.83, -178580.78, 0.00, 0.00, 0.00
145, -29153.42, -62210.80, -33721.32, -61690.12, -174803.69, -177097.52, -182074.27, -178702.34, 0.01, 0.91, 0.40
146, -29088.09, -62969.13, -33094.48, -60932.06, -174269.66, -177143.58, -181692.19, -178535.25, 0.00, 0.00, 0.00
147, -29078.48, -63486.62, -32644.90, -60305.65, -173919.19, -177115.16, -181425.84, -178417.16, 0.00, 0.00, 0.00
148, -29181.63, -62952.21, -33049.89, -60827.19, -174267.98, -177088.80, -181672.31, -178520.89, 0.00, 0.00, 0.00
149, -29268.42, -62162.79, -33651.20, -61687.44, -174767.14, -177118.06, -182047.27, -178683.30, 0.00, 0.00, 0.00
150, -29214.89, -62755.02, -33164.20, -61131.64, -174345.20, -177176.33, -181751.81, -178556.22, 0.00, 0.00, 0.00
151, -29190.53, -63428.35, -32593.51, -60363.99, -173891.22, -177156.44, -181414.27, -178409.63, 0.00, 0.00, 0.00
152, -29294.89, -63073.45, -32842.96, -60686.46, -174123.81, -177118.70, -181572.73, -178473.80, 0.00, 0.00, 0.00
153, -29422.54, -62173.92, -33502.16, -61635.92, -174691.27, -177122.09, -181989.81, -178648.30, 0.00, 0.00, 0.00
154, -29393.57, -62520.35, -33190.37, -61336.79, -174420.30, -177172.27, -181806.94, -178567.80, 0.00, 0.00, 0.00
155, -29343.91, -63299.38, -32513.56, -60454.89, -173871.17, -177153.30, -181404.50, -178392.42, 0.02, 0.91, 0.40
156, -29435.19, -63090.52, -32597.80, -60570.45, -173980.19, -177104.36, -181471.33, -178417.92, 0.00, 0.00, 0.00
157, -29601.44, -62118.36, -33261.00, -61530.53, -174576.23, -177089.61, -181901.42, -178597.70, 0.00, 0.00, 0.00
158, -29600.37, -62140.46, -33141.24, -61504.58, -174476.91, -177133.36, -181846.97, -178572.42, 0.00, 0.00, 0.00
159, -29530.14, -62916.34, -32408.71, -60573.27, -173867.69, -177129.61, -181414.39, -178386.89, 0.00, 0.00, 0.00
160, -29606.99, -62797.94, -32321.27, -60481.41, -173849.11, -177071.47, -181392.20, -178376.48, 0.00, 0.00, 0.00
161, -29815.13, -61741.73, -32890.75, -61397.25, -174432.16, -177020.61, -181804.48, -178549.69, 0.00, 0.00, 0.00
162, -29878.63, -61436.50, -32893.88, -61668.59, -174523.02, -177040.16, -181889.97, -178587.42, 0.00, 0.00, 0.00
163, -29778.92, -62329.25, -32108.99, -60739.37, -173884.83, -177041.81, -181452.78, -178403.53, 0.00, 0.00, 0.00
164, -29803.68, -62492.43, -31841.49, -60432.77, -173728.95, -176967.50, -181338.67, -178353.19, 0.00, 0.00, 0.00
165, -30005.92, -61567.68, -32297.51, -61216.44, -174250.89, -176891.72, -181705.39, -178504.80, 0.02, 0.91, 0.40
166, -30106.03, -61010.65, -32511.97, -61721.59, -174524.56, -176875.63, -181917.83, -178595.17, 0.00, 0.00, 0.00
167, -29977.60, -61905.46, -31849.71, -60871.75, -173911.42, -176879.14, -181503.84, -178420.48, 0.00, 0.00, 0.00
168, -29945.32, -62308.23, -31502.62, -60375.03, -173626.13, -176807.52, -181300.94, -178332.34, 0.00, 0.00, 0.00
169, -30126.66, -61544.83, -31876.69, -60987.09, -174064.25, -176709.33, -181600.14, -178455.14, 0.00, 0.00, 0.00
170, -30264.08, -60762.48, -32247.11, -61673.24, -174492.75, -176663.47, -181911.28, -178587.13, 0.00, 0.00, 0.00
171, -30121.23, -61535.71, -31723.81, -60967.46, -173966.55, -176688.95, -181562.13, -178441.56, 0.00, 0.00, 0.00
172, -30031.27, -62159.77, -31298.30, -60287.21, -173558.36, -176641.11, -181276.28, -178318.39, 0.00, 0.00, 0.00
173, -30182.41, -61593.23, -31575.17, -60705.37, -173889.02, -176539.53, -181496.31, -178405.73, 0.00, 0.00, 0.00
174, -30368.46, -60650.05, -32054.01, -61520.20, -174434.48, -176463.81, -181882.20, -178566.78, 0.00, 0.00, 0.00
175, -30249.13, -61223.68, -31674.99, -61025.34, -174032.67, -176498.78, -181623.81, -178461.33, 0.01, 0.91, 0.40
176, -30111.62, -62014.27, -31178.83, -60230.39, -173519.16, -176481.02, -181271.28, -178313.30, 0.00, 0.00, 0.00
177, -30229.10, -61663.50, -31344.28, -60447.77, -173726.16, -176376.25, -181405.77, -178366.88, 0.00, 0.00, 0.00
178, -30459.03, -60626.02, -31880.09, -61314.07, -174339.59, -176257.78, -181832.42, -178543.72, 0.00, 0.00, 0.00
179, -30386.05, -60918.25, -31657.85, -61059.35, -174101.63, -176269.84, -181685.81, -178481.20, 0.00, 0.00, 0.00
180, -30215.38, -61839.94, -31101.71, -60181.15, -173503.64, -176270.30, -181278.66, -178310.41, 0.00, 0.00, 0.00
181, -30306.53, -61706.46, -31151.22, -60202.21, -173581.89, -176106.39, -181324.86, -178326.81, 0.00, 0.00, 0.00
182, -30594.66, -60674.59, -31696.54, -61054.70, -174209.17, -175817.11, -181756.33, -178502.52, 0.00, 0.00, 0.00
183, -30605.48, -60676.85, -31651.99, -61079.09, -174168.83, -175684.80, -181747.95, -178501.22, 0.00, 0.00, 0.00
184, -30408.12, -61675.75, -31070.69, -60184.86, -173532.33, -175680.56, -181319.69, -178326.92, 0.01, 0.92, 0.40
185, -30461.16, -61766.34, -31005.20, -60012.55, -173480.64, -175512.86, -181276.86, -178308.44, 0.00, 0.00, 0.00
186, -30792.32, -60807.07, -31525.01, -60792.21, -174078.64, -175151.42, -181683.59, -178473.36, 0.00, 0.00, 0.00
187, -30865.03, -60497.92, -31650.09, -61068.99, -174229.72, -174980.61, -181807.05, -178527.53, 0.00, 0.00, 0.00
188, -30590.17, -61479.75, -31065.24, -60205.72, -173575.11, -175104.61, -181372.36, -178352.59, 0.00, 0.00, 0.00
189, -30580.81, -61771.12, -30887.58, -59854.19, -173391.14, -175019.86, -181238.16, -178294.66, 0.00, 0.00, 0.00
190, -30943.89, -60933.74, -31349.42, -60511.13, -173924.03, -174616.05, -181589.92, -178430.59, 0.00, 0.00, 0.00
191, -31120.40, -60351.70, -31626.22, -61012.17, -174257.75, -174320.73, -181832.78, -178532.19, 0.00, 0.00, 0.00
192, -30785.62, -61246.82, -31081.71, -60263.39, -173649.41, -174512.16, -181439.09, -178383.66, 0.00, 0.00, 0.00
193, -30681.37, -61750.02, -30787.83, -59749.77, -173327.98, -174523.70, -181215.80, -178292.91, 0.00, 0.00, 0.00
194, -31116.51, -61094.00, -31194.88, -60251.41, -173784.41, -174074.91, -181504.81, -178395.61, 0.02, 0.90, 0.40
195, -31511.64, -60307.55, -31635.47, -60905.24, -174286.30, -173610.75, -181843.97, -178522.06, 0.00, 0.00, 0.00
196, -31014.38, -61020.46, -31133.50, -60326.66, -173742.72, -173904.48, -181513.80, -178414.30, 0.00, 0.00, 0.00
197, -30544.66, -61695.48, -30663.82, -59688.10, -173252.48, -174191.08, -181206.48, -178318.70, 0.00, 0.00, 0.00
198, -30912.51, -61241.52, -30957.75, -60009.07, -173578.39, -173824.02, -181408.27, -178388.66, 0.00, 0.00, 0.00
199, -31642.94, -60328.16, -31547.05, -60744.42, -174217.81, -173166.73, -181811.78, -178515.64, 0.00, 0.00, 0.00
200, -31356.35, -60799.18, -31212.02, -60373.73, -173850.39, -173369.94, -181585.66, -178437.56, 0.00, 0.00, 0.00
201, -30744.96, -61601.61, -30634.88, -59638.50, -173246.63, -173815.81, -181204.45, -178315.58, 0.00, 0.00, 0.00
202, -30958.35, -61342.71, -30784.99, -59777.82, -173424.86, -173591.02, -181310.50, -178351.84, 0.00, 0.00, 0.00
203, -31755.05, -60366.00, -31414.62, -60544.53, -174111.41, -172887.23, -181742.67, -178486.03, 0.00, 0.00, 0.00
204, -31651.23, -60566.81, -31253.35, -60391.30, -173930.45, -172970.16, -181635.33, -178442.59, 0.02, 0.91, 0.41
205, -30941.65, -61461.75, -30618.36, -59612.41, -173257.69, -173549.84, -181214.06, -178308.89, 0.00, 0.00, 0.00
206, -30966.96, -61397.02, -30623.77, -59588.65, -173288.20, -173479.23, -181226.17, -178314.36, 0.00, 0.00, 0.00
207, -31752.69, -60433.68, -31249.17, -60349.02, -173973.83, -172781.66, -181654.56, -178450.22, 0.00, 0.00, 0.00
208, -31869.12, -60331.58, -31295.71, -60456.15, -174015.41, -172684.56, -181688.39, -178456.86, 0.00, 0.00, 0.00
209, -31109.63, -61263.61, -30640.02, -59675.04, -173308.52, -173327.61, -181247.08, -178314.33, 0.00, 0.00, 0.00
210, -30953.97, -61400.17, -30511.85, -59485.34, -173189.72, -173426.83, -181168.13, -178290.41, 0.00, 0.00, 0.00
211, -31677.83, -60512.70, -31086.80, -60171.70, -173820.88, -172785.53, -181559.58, -178412.25, 0.00, 0.00, 0.00
212, -32009.98, -60137.10, -31314.68, -60491.46, -174064.06, -172500.44, -181716.95, -178454.56, 0.00, 0.00, 0.00
213, -31271.14, -61043.33, -30682.15, -59757.05, -173374.58, -173139.44, -181288.13, -178314.59, 0.00, 0.00, 0.00
214, -30945.27, -61381.78, -30421.93, -59411.80, -173111.38, -173389.67, -181120.56, -178265.42, 0.02, 0.91, 0.41
215, -31558.81, -60630.25, -30910.09, -59986.31, -173649.06, -172840.77, -181451.98, -178371.41, 0.00, 0.00, 0.00
216, -32091.34, -60004.24, -31307.84, -60502.68, -174082.22, -172371.95, -181725.94, -178453.80, 0.00, 0.00, 0.00
217, -31439.27, -60812.32, -30743.46, -59867.25, -173464.03, -172938.72, -181340.64, -178324.95, 0.00, 0.00, 0.00
218, -30957.93, -61324.98, -30358.47, -59379.89, -173065.30, -173317.77, -181087.55, -178244.36, 0.00, 0.00, 0.00
219, -31433.95, -60739.57, -30737.71, -59815.28, -173485.50, -172884.70, -181344.88, -178326.17, 0.00, 0.00, 0.00
220, -32122.54, -59924.42, -31264.81, -60469.76, -174060.34, -172276.59, -181706.69, -178436.34, 0.00, 0.00, 0.00
221, -31624.83, -60550.70, -30824.89, -59987.39, -173572.83, -172719.67, -181405.13, -178333.20, 0.00, 0.00, 0.00
222, -31009.58, -61235.95, -30328.79, -59369.54, -173049.30, -173228.52, -181075.75, -178228.42, 0.00, 0.00, 0.00
223, -31329.61, -60835.59, -30582.62, -59643.15, -173336.28, -172926.92, -181249.22, -178284.91, 0.00, 0.00, 0.00
224, -32112.68, -59915.30, -31186.23, -60372.71, -173997.58, -172228.33, -181663.89, -178414.13, 0.01, 0.90, 0.39
225, -31816.81, -60307.60, -30908.97, -60089.78, -173685.55, -172502.63, -181475.23, -178350.53, 0.00, 0.00, 0.00
226, -31093.78, -61119.43, -30324.32, -59380.11, -173060.95, -173112.31, -181084.06, -178225.27, 0.00, 0.00, 0.00
227, -31237.12, -60917.55, -30436.57, -59476.11, -173198.23, -172952.97, -181162.69, -178249.03, 0.00, 0.00, 0.00
228, -32055.91, -59960.45, -31068.07, -60232.36, -173895.53, -172204.94, -181596.63, -178384.66, 0.00, 0.00, 0.00
229, -31990.89, -60082.74, -30971.78, -60175.16, -173790.13, -172259.34, -181534.47, -178359.22, 0.00, 0.00, 0.00
230, -31210.16, -60986.22, -30337.57, -59422.60, -173105.30, -172938.61, -181107.78, -178224.53, 0.00, 0.00, 0.00
231, -31174.33, -60979.00, -30311.58, -59350.59, -173090.03, -172928.88, -181095.25, -178222.33, 0.00, 0.00, 0.00
232, -31966.93, -60045.37, -30917.96, -60056.21, -173764.27, -172185.34, -181512.14, -178351.41, 0.00, 0.00, 0.00
233, -32142.12, -59870.40, -31009.29, -60211.57, -173867.44, -172014.19, -181578.28, -178364.55, 0.00, 0.00, 0.00
234, -31358.07, -60797.23, -30365.43, -59462.88, -173164.05, -172715.59, -181141.06, -178224.28, 0.01, 0.90, 0.40
235, -31145.12, -60991.58, -30199.29, -59224.61, -172998.23, -172865.30, -181034.39, -178192.53, 0.00, 0.00, 0.00
236, -31859.97, -60146.20, -30741.09, -59843.51, -173607.72, -172180.80, -181410.64, -178310.63, 0.00, 0.00, 0.00
237, -32259.18, -59706.00, -31009.96, -60186.25, -173907.56, -171805.77, -181602.53, -178365.03, 0.00, 0.00, 0.00
238, -31523.42, -60582.12, -30402.89, -59495.85, -173232.14, -172478.38, -181185.05, -178227.80, 0.00, 0.00, 0.00
239, -31145.97, -60968.89, -30107.87, -59111.45, -172924.69, -172785.70, -180990.39, -178167.78, 0.00, 0.00, 0.00
240, -31746.79, -60267.77, -30556.60, -59605.28, -173432.67, -172215.33, -181303.28, -178269.95, 0.00, 0.00, 0.00
241, -32342.28, -59588.83, -30978.60, -60106.39, -173902.20, -171655.89, -181602.11, -178361.17, 0.00, 0.00, 0.00
242, -31715.98, -60345.39, -30462.45, -59531.16, -173312.77, -172245.95, -181243.47, -178243.36, 0.00, 0.00, 0.00
243, -31185.35, -60906.40, -30059.07, -59031.34, -172869.50, -172708.45, -180972.66, -178160.08, 0.00, 0.00, 0.00
244, -31633.57, -60364.80, -30389.99, -59378.12, -173239.78, -172269.67, -181203.27, -178231.47, 0.01, 0.91, 0.40
245, -32375.07, -59511.34, -30920.60, -59991.39, -173836.16, -171570.47, -181578.45, -178345.48, 0.00, 0.00, 0.00
246, -31916.26, -60075.32, -30536.10, -59585.90, -173398.25, -172012.67, -181311.80, -178257.84, 0.00, 0.00, 0.00
247, -31248.39, -60798.48, -30031.85, -58989.58, -172848.22, -172611.14, -180970.38, -178153.56, 0.00, 0.00, 0.00
248, -31526.73, -60440.48, -30237.64, -59196.13, -173092.73, -172323.98, -181117.86, -178201.83, 0.00, 0.00, 0.00
249, -32347.85, -59493.84, -30828.35, -59869.01, -173764.00, -171546.55, -181538.06, -178332.47, 0.00, 0.00, 0.00
250, -32102.45, -59801.17, -30607.18, -59658.52, -173505.95, -171787.08, -181384.44, -178277.95, 0.00, 0.00, 0.00
251, -31323.58, -60643.70, -30021.81, -58991.19, -172855.63, -172489.50, -180981.00, -178148.14, 0.00, 0.00, 0.00
252, -31418.24, -60488.38, -30091.57, -59038.20, -172951.22, -172369.20, -181034.17, -178164.98, 0.00, 0.00, 0.00
253, -32264.99, -59524.26, -30698.02, -59713.93, -173645.84, -171570.69, -181466.20, -178302.23, 0.00, 0.00, 0.00
254, -32259.51, -59560.71, -30655.77, -59703.21, -173589.75, -171590.89, -181440.86, -178291.05, 0.02, 0.91, 0.39
255, -31436.86, -60468.64, -30034.91, -59011.15, -172889.55, -172351.92, -181009.14, -178153.66, 0.00, 0.00, 0.00
0, -31349.19, -60515.98, -29969.42, -58906.41, -172833.11, -172404.45, -180969.73, -178142.14, 0.00, 0.00, 0.00
1, -32161.59, -59599.74, -30542.79, -59536.37, -173493.55, -171635.55, -181376.84, -178269.14, 0.00, 0.00, 0.00
2, -32407.84, -59339.36, -30682.71, -59729.25, -173647.77, -171407.75, -181479.64, -178294.25, 0.00, 0.00, 0.00
3, -31588.51, -60255.74, -30066.22, -59058.63, -172939.05, -172175.61, -181047.20, -178155.44, 0.00, 0.00, 0.00
4, -31319.58, -60493.18, -29876.73, -58812.64, -172734.25, -172394.53, -180921.09, -178117.67, 0.00, 0.00, 0.00
5, -32032.60, -59678.11, -30379.91, -59353.94, -173314.66, -171710.55, -181278.63, -178228.88, 0.00, 0.00, 0.00
6, -32505.85, -59162.09, -30686.57, -59721.94, -173666.20, -171267.06, -181500.94, -178292.58, 0.00, 0.00, 0.00
7, -31761.76, -60010.07, -30123.60, -59126.75, -173011.81, -171977.98, -181101.78, -178163.73, 0.00, 0.00, 0.00
8, -31317.95, -60450.20, -29810.34, -58749.03, -172663.69, -172370.64, -180887.78, -178099.81, 0.02, 0.91, 0.40
9, -31894.62, -59790.60, -30219.27, -59181.05, -173139.31, -171818.50, -181179.97, -178193.16, 0.00, 0.00, 0.00
10, -32548.41, -59055.96, -30662.55, -59692.05, -173652.58, -171195.30, -181501.50, -178287.92, 0.00, 0.00, 0.00
11, -31931.43, -59765.03, -30188.38, -59204.25, -173099.03, -171790.00, -181163.03, -178174.28, 0.00, 0.00, 0.00
12, -31342.42, -60370.81, -29769.37, -58717.74, -172632.38, -172328.17, -180873.86, -178085.80, 0.00, 0.00, 0.00
13, -31758.45, -59894.38, -30063.72, -59020.81, -172980.33, -171932.78, -181084.69, -178155.13, 0.00, 0.00, 0.00
14, -32550.42, -59008.31, -30608.28, -59637.67, -173612.23, -171183.09, -181477.81, -178275.03, 0.00, 0.00, 0.00
15, -32124.44, -59504.07, -30272.71, -59316.61, -173215.39, -171601.52, -181238.48, -178193.86, 0.00, 0.00, 0.00
16, -31404.02, -60256.68, -29758.13, -58740.02, -172634.83, -172262.83, -180878.98, -178079.81, 0.00, 0.00, 0.00
17, -31641.84, -59964.01, -29928.05, -58908.11, -172842.28, -172029.17, -181001.69, -178119.19, 0.02, 0.91, 0.40
18, -32498.85, -59008.98, -30520.63, -59577.23, -173530.48, -171219.55, -181426.73, -178247.94, 0.00, 0.00, 0.00
19, -32306.05, -59243.12, -30349.69, -59444.15, -173324.78, -171415.19, -181304.77, -178201.16, 0.00, 0.00, 0.00
20, -31491.84, -60103.61, -29765.06, -58805.11, -172659.64, -172167.30, -180893.16, -178069.69, 0.00, 0.00, 0.00
21, -31538.58, -60011.57, -29802.12, -58828.16, -172715.91, -172106.55, -180921.97, -178080.13, 0.00, 0.00, 0.00
22, -32394.56, -59054.63, -30397.63, -59502.62, -173406.77, -171296.67, -181346.05, -178209.45, 0.00, 0.00, 0.00
23, -32460.63, -59008.02, -30411.87, -59576.09, -173416.11, -171254.03, -181357.84, -178206.23, 0.00, 0.00, 0.00
24, -31618.69, -59928.07, -29799.77, -58915.60, -172714.84, -172051.14, -180926.30, -178068.16, 0.00, 0.00, 0.00
25, -31477.98, -60029.81, -29705.82, -58793.45, -172622.89, -172162.45, -180864.19, -178048.78, 0.00, 0.00, 0.00
26, -32275.78, -59140.68, -30262.94, -59426.65, -173268.19, -171409.22, -181258.36, -178168.92, 0.00, 0.00, 0.00
27, -32588.66, -58808.69, -30454.99, -59698.02, -173484.64, -171124.44, -181395.73, -178204.44, 0.02, 0.90, 0.41
28, -31775.62, -59712.97, -29855.58, -59059.10, -172794.38, -171901.05, -180971.08, -178068.11, 0.00, 0.00, 0.00
29, -31454.51, -60014.10, -29634.99, -58794.07, -172558.02, -172184.67, -180821.84, -178023.86, 0.00, 0.00, 0.00
30, -32139.95, -59247.36, -30119.44, -59349.64, -173117.55, -171540.73, -181163.20, -178130.56, 0.00, 0.00, 0.00
31, -32678.63, -58667.76, -30477.03, -59808.21, -173524.08, -171047.72, -181419.02, -178204.47, 0.00, 0.00, 0.00
32, -31961.79, -59481.36, -29937.88, -59245.24, -172900.17, -171741.91, -181036.09, -178078.58, 0.00, 0.00, 0.00
33, -31468.28, -59967.54, -29591.32, -58840.18, -172521.11, -172181.47, -180797.23, -178002.69, 0.00, 0.00, 0.00
34, -32003.54, -59354.54, -29974.61, -59286.08, -172964.63, -171671.86, -181065.02, -178085.48, 0.00, 0.00, 0.00
35, -32700.98, -58575.92, -30455.35, -59892.73, -173512.77, -171016.41, -181405.97, -178185.91, 0.00, 0.00, 0.00
36, -32142.68, -59228.37, -30023.44, -59458.70, -173009.81, -171567.14, -181099.17, -178083.81, 0.00, 0.00, 0.00
37, -31508.63, -59887.23, -29570.04, -58933.48, -172507.45, -172151.14, -180786.22, -177986.48, 0.02, 0.91, 0.40
38, -31871.87, -59456.80, -29832.63, -59244.66, -172814.34, -171799.92, -180968.36, -178041.97, 0.00, 0.00, 0.00
39, -32677.51, -58547.31, -30399.24, -59957.05, -173460.45, -171036.30, -181367.50, -178160.05, 0.00, 0.00, 0.00
40, -32319.01, -58976.95, -30108.58, -59690.36, -173118.56, -171396.20, -181160.70, -178088.05, 0.00, 0.00, 0.00
41, -31574.90, -59774.08, -29569.01, -59060.55, -172515.72, -172088.17, -180786.69, -177970.16, 0.00, 0.00, 0.00
42, -31753.27, -59543.79, -29708.87, -59221.53, -172683.27, -171910.05, -180884.44, -178002.63, 0.00, 0.00, 0.00
43, -32597.58, -58590.67, -30319.40, -59984.66, -173376.08, -171111.47, -181312.30, -178133.23, 0.00, 0.00, 0.00
44, -32474.78, -58753.26, -30202.82, -59921.94, -173232.70, -171244.22, -181227.33, -178098.42, 0.00, 0.00, 0.00
45, -31656.66, -59643.26, -29600.77, -59222.33, -172556.72, -172009.13, -180807.36, -177963.73, 0.00, 0.00, 0.00
46, -31640.81, -59613.26, -29603.79, -59217.61, -172571.98, -172001.31, -180810.25, -177965.03, 0.00, 0.00, 0.00
47, -32450.71, -58678.67, -30204.54, -59972.99, -173251.77, -171221.00, -181227.88, -178092.84, 0.02, 0.90, 0.40
48, -32569.89, -58553.54, -30269.71, -60128.25, -173316.25, -171111.14, -181271.44, -178096.66, 0.00, 0.00, 0.00
49, -31743.07, -59477.74, -29644.38, -59393.25, -172611.25, -171895.34, -180834.13, -177953.61, 0.00, 0.00, 0.00
50, -31550.18, -59643.75, -29515.23, -59211.58, -172482.13, -172061.39, -180749.88, -177930.70, 0.00, 0.00, 0.00
51, -32282.40, -58789.00, -30063.86, -59895.50, -173104.53, -171352.47, -181129.97, -178048.30, 0.00, 0.00, 0.00
52, -32635.71, -58391.49, -30307.76, -60259.54, -173370.98, -171018.83, -181302.02, -178094.95, 0.00, 0.00, 0.00
53, -31866.05, -59277.52, -29709.85, -59572.23, -172694.16, -171763.41, -180884.53, -177958.53, 0.00, 0.00, 0.00
54, -31498.55, -59634.12, -29444.00, -59230.91, -172412.88, -172086.95, -180703.83, -177900.48, 0.00, 0.00, 0.00
55, -32109.08, -58917.59, -29910.25, -59812.66, -172939.83, -171496.23, -181026.95, -178001.27, 0.00, 0.00, 0.00
56, -32659.96, -58289.04, -30312.36, -60367.54, -173388.13, -170968.80, -181308.83, -178084.64, 0.00, 0.00, 0.00
57, -31996.63, -59065.09, -29785.11, -59772.05, -172786.95, -171616.53, -180939.69, -177962.03, 0.02, 0.91, 0.39
58, -31476.78, -59596.54, -29401.51, -59280.33, -172372.64, -172086.56, -180679.22, -177880.16, 0.00, 0.00, 0.00
59, -31926.11, -59045.06, -29755.27, -59716.46, -172776.05, -171638.89, -180922.50, -177956.80, 0.00, 0.00, 0.00
60, -32618.55, -58234.05, -30279.46, -60416.11, -173363.14, -170969.52, -181289.31, -178068.98, 0.00, 0.00, 0.00
61, -32124.60, -58832.98, -29874.02, -59974.00, -172897.17, -171467.44, -181003.95, -177972.20, 0.00, 0.00, 0.00
62, -31483.39, -59520.61, -29390.17, -59359.14, -172368.33, -172065.22, -180674.63, -177867.28, 0.00, 0.00, 0.00
63, -31769.14, -59156.32, -29627.84, -59642.92, -172640.38, -171774.14, -180838.59, -177920.94, 0.00, 0.00, 0.00
64, -32540.85, -58243.50, -30227.34, -60426.13, -173309.88, -171018.58, -181256.30, -178050.55, 0.00, 0.00, 0.00
65, -32256.92, -58594.94, -29981.69, -60181.46, -173023.00, -171308.59, -181082.27, -177988.95, 0.00, 0.00, 0.00
66, -31530.71, -59412.63, -29416.32, -59462.63, -172403.52, -172008.72, -180695.50, -177867.83, 0.00, 0.00, 0.00
67, -31646.18, -59234.33, -29517.58, -59564.36, -172530.72, -171878.19, -180767.97, -177892.25, 0.02, 0.91, 0.39
68, -32437.30, -58285.17, -30130.17, -60354.38, -173215.89, -171089.97, -181192.89, -178021.02, 0.00, 0.00, 0.00
69, -32390.56, -58362.84, -30061.22, -60330.11, -173129.72, -171148.03, -181144.88, -177998.92, 0.00, 0.00, 0.00
70, -31616.23, -59251.88, -29441.25, -59555.50, -172444.63, -171902.28, -180718.81, -177862.80, 0.00, 0.00, 0.00
71, -31563.77, -59271.19, -29404.97, -59476.96, -172419.34, -171934.80, -180699.34, -177858.38, 0.00, 0.00, 0.00
72, -32325.61, -58363.44, -29994.56, -60224.20, -173084.17, -171177.25, -181110.88, -177986.63, 0.00, 0.00, 0.00
73, -32514.54, -58162.90, -30108.71, -60421.88, -173206.66, -171000.16, -181192.95, -178007.09, 0.00, 0.00, 0.00
74, -31747.32, -59066.47, -29483.27, -59648.89, -172506.38, -171757.75, -180759.25, -177867.83, 0.00, 0.00, 0.00
75, -31518.53, -59280.09, -29308.54, -59390.55, -172329.19, -171955.30, -180644.94, -177834.25, 0.00, 0.00, 0.00
76, -32200.79, -58471.25, -29835.24, -60038.77, -172926.59, -171275.20, -181014.05, -177951.38, 0.00, 0.00, 0.00
77, -32613.03, -58007.56, -30127.40, -60442.58, -173251.53, -170878.13, -181223.84, -178014.58, 0.02, 0.92, 0.40
78, -31907.67, -58856.14, -29544.49, -59732.22, -172592.66, -171585.75, -180817.36, -177882.08, 0.00, 0.00, 0.00
79, -31524.16, -59254.25, -29247.30, -59314.82, -172277.88, -171939.56, -180619.23, -177822.22, 0.00, 0.00, 0.00
80, -32084.45, -58582.98, -29676.46, -59821.83, -172769.92, -171374.75, -180921.83, -177919.36, 0.00, 0.00, 0.00
81, -32671.68, -57899.89, -30102.93, -60369.51, -173253.14, -170787.33, -181227.38, -178010.72, 0.00, 0.00, 0.00
82, -32084.99, -58616.24, -29608.82, -59776.54, -172688.83, -171380.44, -180880.28, -177895.56, 0.00, 0.00, 0.00
83, -31554.22, -59189.45, -29194.44, -59211.54, -172238.80, -171880.70, -180598.20, -177808.59, 0.00, 0.00, 0.00
84, -31964.04, -58691.77, -29503.99, -59542.45, -172600.64, -171459.64, -180818.92, -177880.81, 0.00, 0.00, 0.00
85, -32686.61, -57847.54, -30034.44, -60180.44, -173208.78, -170733.58, -181201.52, -177999.20, 0.00, 0.00, 0.00
86, -32278.91, -58382.66, -29675.87, -59745.61, -172793.16, -171169.11, -180949.64, -177916.58, 0.00, 0.00, 0.00
87, -31638.47, -59103.51, -29173.94, -59065.80, -172237.91, -171794.30, -180603.75, -177809.39, 0.02, 0.91, 0.40
88, -31892.29, -58792.13, -29359.82, -59200.43, -172465.08, -171530.09, -180741.42, -177857.50, 0.00, 0.00, 0.00
89, -32693.89, -57869.36, -29941.88, -59828.87, -173141.05, -170729.97, -181165.73, -177993.23, 0.00, 0.00, 0.00
90, -32493.15, -58141.98, -29740.89, -59581.41, -172903.14, -170944.92, -181023.98, -177941.88, 0.00, 0.00, 0.00
91, -31760.96, -58977.07, -29172.65, -58870.58, -172246.47, -171667.34, -180623.34, -177814.84, 0.00, 0.00, 0.00
92, -31834.11, -58849.14, -29230.13, -58895.04, -172309.28, -171561.38, -180668.72, -177833.11, 0.00, 0.00, 0.00
93, -32636.03, -57909.28, -29810.99, -59546.54, -172988.70, -170735.84, -181093.42, -177969.92, 0.00, 0.00, 0.00
94, -32662.76, -57904.58, -29789.24, -59530.65, -172965.89, -170709.09, -181083.86, -177962.81, 0.00, 0.00, 0.00
95, -31880.18, -58798.45, -29192.54, -58809.36, -172281.41, -171482.95, -180656.50, -177827.05, 0.00, 0.00, 0.00
96, -31779.02, -58872.97, -29119.16, -58642.73, -172217.39, -171556.34, -180612.34, -177816.91, 0.02, 0.91, 0.40
97, -32538.33, -57994.48, -29662.48, -59170.56, -172867.42, -170780.13, -181016.84, -177949.23, 0.00, 0.00, 0.00
98, -32796.18, -57720.05, -29817.16, -59308.99, -173050.19, -170516.98, -181136.94, -177985.97, 0.00, 0.00, 0.00
99, -32029.36, -58609.89, -29234.94, -58639.78, -172364.88, -171288.11, -180711.05, -177848.44, 0.00, 0.00, 0.00
100, -31753.29, -58876.41, -29039.77, -58336.57, -172157.41, -171536.92, -180577.64, -177812.30, 0.00, 0.00, 0.00
101, -32412.55, -58112.16, -29509.51, -58712.98, -172731.25, -170850.52, -180931.27, -177930.66, 0.00, 0.00, 0.00
102, -32873.36, -57591.75, -29818.48, -58954.87, -173105.47, -170370.58, -181168.89, -178006.69, 0.00, 0.00, 0.00
103, -32180.05, -58405.04, -29296.86, -58404.32, -172477.81, -171076.45, -180778.59, -177877.39, 0.00, 0.00, 0.00
104, -31739.61, -58846.84, -28988.42, -58026.60, -172129.34, -171483.97, -180555.02, -177806.00, 0.00, 0.00, 0.00
105, -32255.73, -58237.29, -29360.98, -58267.31, -172592.52, -170937.44, -180839.33, -177903.98, 0.00, 0.00, 0.00
106, -32886.57, -57535.49, -29796.19, -58536.67, -173125.52, -170293.91, -181179.41, -178018.55, 0.02, 0.91, 0.40
107, -32341.43, -58209.46, -29377.25, -58080.76, -172609.53, -170878.95, -180861.17, -177913.20, 0.00, 0.00, 0.00
108, -31774.86, -58820.00, -28976.06, -57637.19, -172138.89, -171444.92, -180564.81, -177819.66, 0.00, 0.00, 0.00
109, -32132.55, -58388.92, -29234.43, -57743.47, -172468.89, -171061.84, -180765.06, -177890.86, 0.00, 0.00, 0.00
110, -32862.99, -57547.94, -29745.43, -58065.83, -173104.64, -170295.61, -181165.67, -178025.45, 0.00, 0.00, 0.00
111, -32490.99, -58008.83, -29454.68, -57818.35, -172740.41, -170690.25, -180943.13, -177947.28, 0.00, 0.00, 0.00
112, -31808.03, -58742.57, -28972.15, -57410.45, -172159.44, -171371.28, -180576.73, -177824.59, 0.00, 0.00, 0.00
113, -31996.19, -58492.52, -29113.28, -57450.60, -172346.42, -171157.09, -180689.06, -177864.94, 0.00, 0.00, 0.00
114, -32775.39, -57593.18, -29661.14, -57790.41, -173032.00, -170337.14, -181120.27, -178010.05, 0.00, 0.00, 0.00
115, -32624.47, -57799.20, -29530.34, -57692.73, -172864.34, -170509.05, -181021.27, -177974.94, 0.00, 0.00, 0.00
116, -31873.21, -58630.16, -28994.17, -57303.50, -172209.25, -171277.72, -180609.11, -177836.70, 0.02, 0.91, 0.39
117, -31886.13, -58565.77, -29014.24, -57280.88, -172249.17, -171237.73, -180629.27, -177846.72, 0.00, 0.00, 0.00
118, -32651.76, -57678.34, -29556.85, -57622.28, -172928.64, -170423.58, -181056.14, -177990.06, 0.00, 0.00, 0.00
119, -32727.11, -57610.05, -29589.10, -57654.20, -172963.31, -170348.14, -181083.70, -177993.55, 0.00, 0.00, 0.00
120, -31944.71, -58476.09, -29025.17, -57284.23, -172266.20, -171153.98, -180644.38, -177840.78, 0.00, 0.00, 0.00
121, -31778.14, -58601.31, -28923.18, -57201.60, -172155.41, -171291.56, -180567.84, -177815.52, 0.00, 0.00, 0.00
122, -32471.96, -57789.65, -29426.83, -57541.61, -172784.14, -170543.14, -180959.78, -177947.44, 0.00, 0.00, 0.00
123, -32759.63, -57457.23, -29621.89, -57707.46, -173020.52, -170225.67, -181112.78, -177991.89, 0.00, 0.00, 0.00
124, -32009.73, -58306.51, -29078.81, -57379.81, -172339.56, -171012.59, -180685.58, -177844.31, 0.00, 0.00, 0.00
125, -31681.00, -58609.85, -28865.29, -57253.45, -172088.58, -171325.78, -180523.97, -177792.23, 0.00, 0.00, 0.00
126, -32255.09, -57904.81, -29295.80, -57608.98, -172625.63, -170684.20, -180855.78, -177900.50, 0.02, 0.90, 0.39
127, -32721.14, -57335.96, -29636.40, -57955.01, -173041.95, -170160.81, -181122.13, -177982.70, 0.00, 0.00, 0.00
128, -32068.63, -58084.22, -29155.75, -57711.02, -172433.89, -170852.86, -180743.47, -177850.72, 0.00, 0.00, 0.00
129, -31592.49, -58567.49, -28831.04, -57514.55, -172042.80, -171333.69, -180496.36, -177771.86, 0.00, 0.00, 0.00
130, -32027.99, -58020.01, -29174.21, -57840.08, -172468.38, -170849.36, -180759.48, -177862.88, 0.00, 0.00, 0.00
131, -32627.87, -57276.52, -29626.45, -58290.57, -173024.53, -170171.69, -181109.83, -177971.00, 0.00, 0.00, 0.00
132, -32128.87, -57877.00, -29240.42, -58037.49, -172536.78, -170717.52, -180804.42, -177858.34, 0.00, 0.00, 0.00
133, -31545.89, -58514.25, -28818.35, -57708.09, -172027.92, -171334.25, -180482.38, -177750.92, 0.00, 0.00, 0.00
134, -31817.89, -58129.93, -29046.27, -57977.23, -172310.64, -171009.59, -180654.55, -177806.83, 0.00, 0.00, 0.00
135, -32496.73, -57261.12, -29579.27, -58583.83, -172958.44, -170235.48, -181064.56, -177937.78, 0.00, 0.00, 0.00
136, -32190.76, -57643.27, -29332.80, -58480.41, -172641.42, -170579.14, -180869.80, -177863.91, 0.02, 0.90, 0.39
137, -31520.47, -58410.74, -28826.62, -58068.06, -172031.25, -171304.13, -180483.61, -177733.27, 0.00, 0.00, 0.00
138, -31634.00, -58206.54, -28939.41, -58255.39, -172175.75, -171152.13, -180567.25, -177759.64, 0.00, 0.00, 0.00
139, -32325.18, -57289.11, -29499.99, -58946.18, -172853.44, -170346.45, -180990.61, -177890.95, 0.00, 0.00, 0.00
140, -32227.41, -57413.27, -29414.83, -58973.27, -172735.48, -170459.36, -180920.80, -177857.20, 0.00, 0.00, 0.00
141, -31521.23, -58274.06, -28857.06, -58425.87, -172063.81, -171251.59, -180497.70, -177711.47, 0.00, 0.00, 0.00
142, -31471.99, -58264.94, -28843.38, -58459.27, -172058.78, -171281.80, -180486.17, -177704.23, 0.00, 0.00, 0.00
143, -32133.16, -57372.21, -29400.34, -59198.48, -172724.98, -170510.92, -180899.03, -177834.42, 0.00, 0.00, 0.00
144, -32240.02, -57222.09, -29486.22, -59438.92, -172814.05, -170380.64, -180958.13, -177843.45, 0.00, 0.00, 0.00
145, -31536.10, -58119.92, -28910.88, -58843.31, -172123.33, -171187.22, -180525.33, -177698.34, 0.00, 0.00, 0.00
146, -31349.15, -58306.45, -28778.74, -58719.19, -171977.58, -171386.52, -180428.95, -177666.61, 0.02, 0.91, 0.40
147, -31942.88, -57500.35, -29290.71, -59406.87, -172580.31, -170703.81, -180802.50, -177782.80, 0.00, 0.00, 0.00
148, -32256.85, -57093.89, -29552.07, -59804.44, -172876.70, -170358.19, -180993.95, -177836.70, 0.00, 0.00, 0.00
149, -31608.03, -57955.99, -29000.58, -59175.93, -172220.67, -171120.69, -180581.56, -177696.27, 0.00, 0.00, 0.00
150, -31274.60, -58322.38, -28745.01, -58873.96, -171942.08, -171480.81, -180395.84, -177634.20, 0.00, 0.00, 0.00
151, -31755.77, -57649.10, -29181.99, -59479.64, -172451.39, -170916.78, -180708.17, -177732.13, 0.00, 0.00, 0.00
152, -32221.65, -57014.25, -29594.31, -60104.44, -172920.58, -170374.73, -181004.20, -177822.38, 0.00, 0.00, 0.00
153, -31673.25, -57753.38, -29109.59, -59565.21, -172351.95, -171011.30, -180643.19, -177694.53, 0.00, 0.00, 0.00
154, -31213.32, -58297.26, -28732.09, -59087.93, -171936.63, -171512.73, -180372.45, -177602.63, 0.00, 0.00, 0.00
155, -31564.55, -57785.76, -29069.43, -59543.82, -172331.36, -171099.30, -180609.16, -177677.97, 0.00, 0.00, 0.00
156, -32135.73, -56997.48, -29593.40, -60289.34, -172919.77, -170436.47, -180982.14, -177793.66, 0.01, 0.91, 0.40
157, -31734.85, -57559.05, -29223.77, -59881.17, -172488.50, -170906.58, -180707.88, -177695.22, 0.00, 0.00, 0.00
158, -31175.12, -58254.61, -28736.07, -59237.71, -171955.73, -171520.95, -180362.67, -177577.36, 0.00, 0.00, 0.00
159, -31378.81, -57929.59, -28946.60, -59508.66, -172194.41, -171267.98, -180505.89, -177622.48, 0.00, 0.00, 0.00
160, -32017.89, -57039.13, -29543.66, -60349.08, -172861.61, -170524.78, -180926.66, -177756.98, 0.00, 0.00, 0.00
161, -31798.73, -57370.80, -29324.15, -60140.65, -172608.48, -170791.48, -180767.11, -177697.03, 0.00, 0.00, 0.00
162, -31178.96, -58175.11, -28757.53, -59396.50, -171986.00, -171482.73, -180368.58, -177562.67, 0.00, 0.00, 0.00
163, -31248.23, -58033.40, -28837.41, -59494.30, -172087.55, -171380.66, -180424.84, -177580.78, 0.00, 0.00, 0.00
164, -31901.41, -57120.11, -29450.34, -60349.98, -172772.47, -170616.00, -180854.58, -177717.59, 0.00, 0.00, 0.00
165, -31876.07, -57170.55, -29409.64, -60374.43, -172716.53, -170647.73, -180822.80, -177699.20, 0.00, 0.00, 0.00
166, -31224.38, -58048.08, -28797.88, -59569.39, -172042.75, -171391.45, -180394.98, -177558.03, 0.01, 0.91, 0.38
167, -31155.13, -58094.48, -28751.12, -59484.56, -172006.38, -171451.03, -180367.16, -177553.63, 0.00, 0.00, 0.00
168, -31772.27, -57228.64, -29338.96, -60294.63, -172658.33, -170728.05, -180778.63, -177688.61, 0.00, 0.00, 0.00
169, -31941.29, -57005.86, -29486.35, -60559.61, -172811.92, -170534.48, -180882.41, -177719.19, 0.00, 0.00, 0.00
170, -31290.79, -57883.42, -28868.08, -59748.65, -172127.17, -171276.38, -180448.69, -177574.09, 0.00, 0.00, 0.00
171, -31069.97, -58112.14, -28680.91, -59463.84, -171937.59, -171490.72, -180323.00, -177534.20, 0.00, 0.00, 0.00
172, -31606.86, -57343.49, -29199.11, -60164.84, -172513.94, -170852.08, -180686.20, -177655.03, 0.00, 0.00, 0.00
173, -31947.35, -56864.76, -29513.62, -60643.61, -172856.09, -170446.22, -180909.63, -177724.61, 0.00, 0.00, 0.00
174, -31362.11, -57683.77, -28947.14, -59908.39, -172222.05, -171133.16, -180511.70, -177593.55, 0.00, 0.00, 0.00
175, -31012.57, -58093.75, -28635.53, -59449.98, -171894.36, -171504.58, -180301.38, -177528.44, 0.00, 0.00, 0.00
176, -31444.92, -57459.49, -29054.27, -60000.26, -172363.81, -170976.13, -180595.77, -177624.97, 0.01, 0.91, 0.39
177, -31926.69, -56777.86, -29506.58, -60647.12, -172862.81, -170396.59, -180918.97, -177728.30, 0.00, 0.00, 0.00
178, -31446.65, -57463.34, -29036.39, -60047.78, -172329.17, -170965.69, -180586.64, -177619.06, 0.00, 0.00, 0.00
179, -30981.46, -58038.29, -28610.43, -59434.11, -171870.89, -171473.02, -180294.38, -177526.31, 0.00, 0.00, 0.00
180, -31284.60, -57573.27, -28907.15, -59803.12, -172209.39, -171087.44, -180504.88, -177596.70, 0.00, 0.00, 0.00
181, -31865.34, -56742.65, -29452.87, -60554.38, -172819.34, -170375.97, -180896.50, -177721.78, 0.00, 0.00, 0.00
182, -31528.39, -57227.35, -29112.25, -60136.38, -172426.47, -170772.28, -180653.61, -177638.41, 0.00, 0.00, 0.00
183, -30976.32, -57941.06, -28594.21, -59404.70, -171858.89, -171393.08, -180292.34, -177521.08, 0.00, 0.00, 0.00
184, -31132.16, -57655.38, -28760.93, -59587.29, -172060.53, -171170.64, -180418.89, -177568.36, 0.00, 0.00, 0.00
185, -31693.03, -56743.37, -29329.87, -60369.51, -172715.19, -170428.69, -180843.98, -177713.22, 0.02, 0.90, 0.40
186, -31520.36, -56982.42, -29150.43, -60165.86, -172504.31, -170619.84, -180718.47, -177668.31, 0.00, 0.00, 0.00
187, -30957.54, -57815.69, -28584.48, -59358.68, -171865.22, -171308.50, -180308.23, -177530.72, 0.00, 0.00, 0.00
188, -30992.14, -57722.62, -28625.25, -59348.06, -171925.97, -171239.19, -180342.72, -177546.31, 0.00, 0.00, 0.00
189, -31544.35, -56811.25, -29191.58, -60095.64, -172586.44, -170497.25, -180770.13, -177694.38, 0.00, 0.00, 0.00
190, -31540.03, -56781.01, -29188.23, -60126.44, -172579.22, -170472.38, -180776.03, -177694.95, 0.00, 0.00, 0.00
191, -30964.85, -57670.88, -28600.06, -59317.62, -171900.22, -171199.02, -180339.50, -177543.67, 0.00, 0.00, 0.00
192, -30877.32, -57773.76, -28516.85, -59141.17, -171815.16, -171289.66, -180280.92, -177525.97, 0.00, 0.00, 0.00
193, -31388.15, -56925.55, -29045.82, -59815.77, -172436.84, -170595.25, -180682.22, -177666.05, 0.00, 0.00, 0.00
194, -31538.62, -56633.17, -29216.37, -60075.09, -172635.25, -170359.73, -180821.97, -177716.05, 0.00, 0.00, 0.00
195, -30978.64, -57511.19, -28643.11, -59323.41, -171964.91, -171080.72, -180391.25, -177566.55, 0.02, 0.91, 0.41
196, -30773.79, -57798.37, -28437.99, -58995.77, -171741.61, -171324.47, -180239.83, -177514.33, 0.00, 0.00, 0.00
197, -31206.59, -57061.18, -28892.33, -59564.22, -172279.23, -170717.14, -180582.52, -177630.92, 0.00, 0.00, 0.00
198, -31496.80, -56519.63, -29213.62, -60022.52, -172656.73, -170277.91, -180836.27, -177717.33, 0.00, 0.00, 0.00
199, -30998.92, -57314.59, -28697.74, -59383.38, -172046.58, -170934.36, -180447.50, -177581.88, 0.00, 0.00, 0.00
200, -30689.53, -57780.80, -28381.30, -58928.79, -171690.72, -171334.30, -180212.44, -177502.06, 0.00, 0.00, 0.00
201, -31047.71, -57198.98, -28749.91, -59374.81, -172128.75, -170847.70, -180488.20, -177597.08, 0.00, 0.00, 0.00
202, -31466.00, -56470.77, -29195.71, -59980.86, -172655.06, -170244.05, -180832.94, -177713.47, 0.00, 0.00, 0.00
203, -31043.15, -57109.84, -28770.23, -59489.28, -172151.36, -170783.80, -180515.50, -177603.36, 0.00, 0.00, 0.00
204, -30615.09, -57733.14, -28347.35, -58924.34, -171672.33, -171330.56, -180205.17, -177501.25, 0.00, 0.00, 0.00
205, -30866.17, -57329.52, -28600.69, -59217.73, -171975.09, -170987.20, -180390.31, -177562.30, 0.02, 0.91, 0.40
206, -31404.33, -56476.96, -29145.31, -59926.39, -172612.39, -170249.80, -180798.81, -177694.81, 0.00, 0.00, 0.00
207, -31109.07, -56907.76, -28855.63, -59623.25, -172267.33, -170616.81, -180584.44, -177619.70, 0.00, 0.00, 0.00
208, -30573.32, -57654.98, -28337.76, -58965.62, -171678.47, -171280.50, -180204.36, -177491.70, 0.00, 0.00, 0.00
209, -30698.04, -57434.75, -28471.36, -59109.28, -171842.78, -171094.80, -180299.92, -177522.44, 0.00, 0.00, 0.00
210, -31278.67, -56532.72, -29059.21, -59866.46, -172526.00, -170304.80, -180733.83, -177662.48, 0.00, 0.00, 0.00
211, -31151.47, -56708.14, -28939.56, -59785.66, -172378.39, -170448.39, -180645.63, -177629.23, 0.00, 0.00, 0.00
212, -30550.25, -57546.04, -28360.96, -59076.82, -171717.27, -171202.59, -180223.56, -177489.75, 0.00, 0.00, 0.00
213, -30542.70, -57509.76, -28369.75, -59072.30, -171740.20, -171189.05, -180231.20, -177493.39, 0.00, 0.00, 0.00
214, -31129.63, -56630.45, -28958.49, -59831.46, -172419.08, -170410.13, -180659.44, -177631.20, 0.00, 0.00, 0.00
215, -31191.99, -56529.82, -29026.11, -59987.97, -172486.55, -170310.67, -180707.66, -177642.36, 0.01, 0.90, 0.40
216, -30569.90, -57408.82, -28421.61, -59258.92, -171792.91, -171094.53, -180266.41, -177495.83, 0.00, 0.00, 0.00
217, -30422.44, -57556.07, -28298.92, -59090.61, -171667.58, -171251.33, -180179.95, -177468.13, 0.00, 0.00, 0.00
218, -30948.40, -56749.09, -28839.02, -59794.25, -172287.95, -170540.42, -180568.20, -177590.66, 0.00, 0.00, 0.00
219, -31174.38, -56388.84, -29076.53, -60168.26, -172551.75, -170213.98, -180739.42, -177639.16, 0.00, 0.00, 0.00
220, -30585.10, -57232.46, -28494.38, -59477.57, -171881.20, -170965.27, -180314.00, -177497.05, 0.00, 0.00, 0.00
221, -30311.67, -57570.74, -28244.18, -59147.23, -171611.69, -171289.97, -180137.83, -177442.42, 0.00, 0.00, 0.00
222, -30749.36, -56890.75, -28705.56, -59752.85, -172140.25, -170694.14, -180467.64, -177548.58, 0.00, 0.00, 0.00
223, -31119.13, -56305.38, -29099.45, -60318.68, -172583.84, -170170.22, -180752.38, -177634.66, 0.00, 0.00, 0.00
224, -30604.05, -57057.99, -28589.04, -59711.57, -171997.61, -170834.38, -180380.88, -177512.03, 0.00, 0.00, 0.00
225, -30199.64, -57566.60, -28218.83, -59219.43, -171599.19, -171315.20, -180117.14, -177430.58, 0.02, 0.90, 0.39
226, -30515.18, -57042.30, -28576.06, -59683.49, -172008.11, -170857.41, -180369.92, -177511.41, 0.00, 0.00, 0.00
227, -30982.11, -56288.89, -29090.28, -60404.69, -172587.48, -170187.70, -180743.02, -177624.97, 0.00, 0.00, 0.00
228, -30604.50, -56861.25, -28692.84, -59958.02, -172130.47, -170690.23, -180453.88, -177525.86, 0.00, 0.00, 0.00
229, -30138.26, -57514.25, -28212.86, -59327.90, -171603.25, -171300.67, -180116.83, -177418.53, 0.00, 0.00, 0.00
230, -30341.51, -57157.95, -28447.76, -59628.35, -171876.95, -171001.44, -180283.06, -177473.41, 0.00, 0.00, 0.00
231, -30871.69, -56307.42, -29038.40, -60441.48, -172542.55, -170243.23, -180706.45, -177606.52, 0.00, 0.00, 0.00
232, -30629.85, -56667.93, -28798.34, -60198.01, -172261.36, -170552.97, -180531.19, -177547.25, 0.00, 0.00, 0.00
233, -30085.00, -57443.87, -28235.13, -59462.79, -171641.98, -171264.05, -180130.80, -177418.89, 0.00, 0.00, 0.00
234, -30159.03, -57270.29, -28339.71, -59586.86, -171771.00, -171132.80, -180206.23, -177442.33, 0.00, 0.00, 0.00
235, -30696.23, -56385.67, -28959.86, -60433.68, -172466.55, -170355.84, -180648.16, -177581.23, 0.01, 0.91, 0.40
236, -30628.97, -56477.54, -28891.60, -60419.73, -172381.55, -170430.13, -180598.67, -177556.53, 0.00, 0.00, 0.00
237, -30064.79, -57320.64, -28272.72, -59619.97, -171696.64, -171193.81, -180160.00, -177412.36, 0.00, 0.00, 0.00
238, -30013.50, -57338.01, -28239.44, -59556.27, -171673.59, -171232.47, -180137.78, -177407.27, 0.00, 0.00, 0.00
239, -30523.81, -56489.65, -28841.88, -60373.87, -172345.31, -170485.11, -180563.38, -177544.02, 0.00, 0.00, 0.00
240, -30607.56, -56322.06, -28957.11, -60599.02, -172464.98, -170330.09, -180643.02, -177562.72, 0.00, 0.00, 0.00
241, -30049.91, -57186.96, -28329.07, -59793.13, -171768.28, -171101.92, -180197.61, -177414.75, 0.00, 0.00, 0.00
242, -29886.79, -57384.48, -28164.78, -59549.09, -171602.47, -171304.36, -180086.45, -177379.50, 0.00, 0.00, 0.00
243, -30339.23, -56627.16, -28708.07, -60281.25, -172206.03, -170640.61, -180469.23, -177500.98, 0.00, 0.00, 0.00
244, -30580.11, -56205.72, -29007.33, -60745.94, -172531.30, -170262.13, -180681.42, -177563.03, 0.00, 0.00, 0.00
245, -30068.88, -57018.27, -28417.58, -60003.73, -171874.00, -170981.42, -180261.45, -177425.45, 0.02, 0.91, 0.40
246, -29802.54, -57394.72, -28123.39, -59585.30, -171566.27, -171339.28, -180060.11, -177365.31, 0.00, 0.00, 0.00
247, -30174.03, -56757.34, -28572.77, -60187.59, -172067.61, -170783.91, -180374.73, -177467.17, 0.00, 0.00, 0.00
248, -30537.29, -56127.60, -29014.71, -60836.51, -172552.78, -170226.00, -180689.78, -177563.75, 0.00, 0.00, 0.00
249, -30118.95, -56819.50, -28517.23, -60222.10, -171994.30, -170831.16, -180336.53, -177446.97, 0.00, 0.00, 0.00
250, -29755.80, -57361.93, -28100.14, -59637.27, -171551.13, -171335.41, -180049.53, -177356.08, 0.00, 0.00, 0.00
251, -30023.89, -56880.98, -28428.98, -60068.41, -171922.55, -170922.64, -180280.42, -177427.97, 0.00, 0.00, 0.00
252, -30471.78, -56096.66, -28979.30, -60852.11, -172530.22, -170234.75, -180672.88, -177551.17, 0.00, 0.00, 0.00
253, -30164.01, -56608.45, -28608.27, -60409.50, -172109.31, -170671.67, -180406.88, -177460.91, 0.00, 0.00, 0.00
254, -29721.31, -57286.60, -28089.37, -59689.04, -171551.13, -171287.52, -180044.72, -177345.17, 0.00, 0.00, 0.00
255, -29878.31, -56982.06, -28286.49, -59933.21, -171780.03, -171038.42, -180185.05, -177392.13, 0.01, 0.92, 0.40
0, -30380.91, -56109.05, -28897.54, -60786.98, -172458.14, -170275.22, -180621.28, -177530.02, 0.00, 0.00, 0.00
1, -30212.74, -56393.07, -28691.93, -60572.06, -172220.34, -170512.36, -180474.17, -177478.09, 0.00, 0.00, 0.00
2, -29718.23, -57181.66, -28105.22, -59768.88, -171582.00, -171219.47, -180063.70, -177346.69, 0.00, 0.00, 0.00
3, -29763.31, -57060.92, -28170.62, -59827.26, -171668.25, -171135.59, -180113.84, -177365.95, 0.00, 0.00, 0.00
4, -30263.23, -56168.32, -28787.03, -60681.72, -172354.98, -170363.41, -180553.39, -177505.03, 0.00, 0.00, 0.00
5, -30246.07, -56188.86, -28766.69, -60717.89, -172323.56, -170367.83, -180538.19, -177494.66, 0.00, 0.00, 0.00
6, -29729.65, -57044.09, -28144.82, -59877.95, -171639.47, -171123.77, -180099.11, -177353.91, 0.00, 0.00, 0.00
7, -29665.88, -57108.91, -28081.26, -59755.24, -171585.19, -171206.80, -180061.67, -177348.08, 0.00, 0.00, 0.00
8, -30140.86, -56271.21, -28666.69, -60556.48, -172238.16, -170484.44, -180480.08, -177483.64, 0.00, 0.00, 0.00
9, -30271.17, -56017.27, -28831.42, -60842.39, -172414.73, -170257.75, -180598.25, -177515.61, 0.01, 0.92, 0.40
10, -29755.18, -56868.51, -28205.69, -60015.48, -171721.34, -171001.25, -180150.81, -177365.75, 0.00, 0.00, 0.00
11, -29575.63, -57111.34, -28004.37, -59705.51, -171516.75, -171239.17, -180015.13, -177325.08, 0.00, 0.00, 0.00
12, -29990.77, -56375.70, -28516.62, -60396.96, -172089.38, -170604.20, -180380.14, -177442.94, 0.00, 0.00, 0.00
13, -30262.85, -55884.43, -28854.07, -60907.43, -172460.02, -170171.17, -180623.81, -177516.77, 0.00, 0.00, 0.00
14, -29797.85, -56674.77, -28288.48, -60175.95, -171827.38, -170860.13, -180219.98, -177384.80, 0.00, 0.00, 0.00
15, -29514.25, -57093.15, -27959.55, -59695.72, -171482.11, -171251.19, -179993.08, -177313.30, 0.00, 0.00, 0.00
16, -29851.69, -56499.66, -28374.15, -60245.08, -171948.52, -170740.19, -180288.36, -177410.23, 0.00, 0.00, 0.00
17, -30231.22, -55816.42, -28845.86, -60929.49, -172470.77, -170139.17, -180627.88, -177515.00, 0.00, 0.00, 0.00
18, -29846.60, -56468.68, -28377.71, -60346.13, -171942.73, -170703.34, -180291.83, -177402.81, 0.01, 0.91, 0.40
19, -29469.25, -57046.03, -27935.50, -59721.91, -171470.22, -171237.63, -179984.05, -177305.86, 0.00, 0.00, 0.00
20, -29703.61, -56617.91, -28225.87, -60098.95, -171801.25, -170873.25, -180189.55, -177371.44, 0.00, 0.00, 0.00
21, -30164.75, -55796.99, -28796.82, -60911.05, -172435.36, -170152.52, -180598.56, -177497.63, 0.00, 0.00, 0.00
22, -29892.37, -56251.05, -28469.24, -60531.99, -172062.09, -170543.11, -180362.80, -177416.19, 0.00, 0.00, 0.00
23, -29437.00, -56961.99, -27935.39, -59796.50, -171485.45, -171193.13, -179989.66, -177297.81, 0.00, 0.00, 0.00
24, -29554.97, -56714.18, -28104.21, -60005.54, -171684.06, -170993.88, -180108.16, -177339.31, 0.00, 0.00, 0.00
25, -30047.20, -55852.29, -28733.44, -60886.60, -172380.80, -170234.36, -180553.41, -177484.16, 0.00, 0.00, 0.00
26, -29917.34, -56059.49, -28582.72, -60757.16, -172204.00, -170408.86, -180445.11, -177443.27, 0.00, 0.00, 0.00
27, -29407.65, -56866.55, -27975.69, -59939.62, -171543.75, -171140.53, -180019.02, -177303.80, 0.00, 0.00, 0.00
28, -29419.12, -56795.13, -28005.80, -59959.47, -171592.34, -171104.77, -180043.56, -177313.72, 0.01, 0.91, 0.40
29, -29909.40, -55922.03, -28624.29, -60825.62, -172275.13, -170345.30, -180480.41, -177450.42, 0.00, 0.00, 0.00
30, -29932.79, -55873.23, -28661.66, -60948.00, -172306.78, -170295.67, -180506.73, -177453.98, 0.00, 0.00, 0.00
31, -29412.68, -56728.01, -28026.79, -60103.39, -171613.69, -171060.22, -180059.88, -177308.63, 0.00, 0.00, 0.00
32, -29304.83, -56838.23, -27913.95, -59923.84, -171507.95, -171184.11, -179982.55, -177282.31, 0.00, 0.00, 0.00
33, -29760.30, -56035.64, -28490.29, -60721.75, -172143.50, -170484.39, -180386.31, -177408.42, 0.00, 0.00, 0.00
34, -29922.97, -55731.57, -28715.84, -61096.14, -172383.33, -170211.08, -180543.59, -177454.58, 0.00, 0.00, 0.00
35, -29414.27, -56575.26, -28100.88, -60290.68, -171709.11, -170956.00, -180108.47, -177314.53, 0.00, 0.00, 0.00
36, -29211.87, -56868.45, -27860.55, -59935.69, -171466.22, -171243.55, -179948.09, -177265.05, 0.00, 0.00, 0.00
37, -29604.84, -56181.38, -28361.48, -60618.96, -172016.84, -170643.88, -180295.58, -177373.02, 0.00, 0.00, 0.00
38, -29909.47, -55647.73, -28749.62, -61208.71, -172436.19, -170170.11, -180568.31, -177455.86, 0.02, 0.91, 0.40
39, -29467.67, -56394.90, -28198.80, -60506.46, -171829.34, -170830.58, -180181.00, -177333.03, 0.00, 0.00, 0.00
40, -29155.88, -56852.75, -27825.17, -59970.76, -171442.66, -171261.55, -179926.53, -177252.05, 0.00, 0.00, 0.00
41, -29466.91, -56309.79, -28217.00, -60495.06, -171876.39, -170790.86, -180197.33, -177336.03, 0.00, 0.00, 0.00
42, -29877.42, -55600.84, -28739.22, -61250.42, -172444.86, -170164.14, -180562.89, -177447.45, 0.00, 0.00, 0.00
43, -29525.38, -56194.05, -28295.94, -60706.78, -171957.55, -170683.50, -180250.08, -177341.42, 0.00, 0.00, 0.00
44, -29126.18, -56807.34, -27812.52, -60028.11, -171451.69, -171252.16, -179919.41, -177237.69, 0.00, 0.00, 0.00
45, -29339.55, -56435.52, -28082.78, -60378.68, -171753.30, -170932.41, -180106.53, -177297.61, 0.00, 0.00, 0.00
46, -29817.88, -55613.51, -28690.81, -61245.92, -172409.03, -170205.88, -180529.53, -177427.36, 0.00, 0.00, 0.00
47, -29583.63, -56001.60, -28399.88, -60919.25, -172085.52, -170540.39, -180322.92, -177356.03, 0.00, 0.00, 0.00
48, -29112.63, -56732.84, -27823.76, -60125.39, -171481.23, -171209.14, -179927.52, -177230.75, 0.02, 0.91, 0.40
49, -29207.85, -56539.52, -27952.91, -60278.16, -171633.39, -171057.11, -180016.20, -177258.92, 0.00, 0.00, 0.00
50, -29715.06, -55670.53, -28599.03, -61187.77, -172328.86, -170292.95, -180462.66, -177394.53, 0.00, 0.00, 0.00
51, -29621.74, -55809.67, -28491.07, -61116.51, -172203.58, -170408.47, -180384.97, -177361.31, 0.00, 0.00, 0.00
52, -29106.42, -56624.34, -27858.45, -60259.94, -171536.05, -171146.83, -179952.08, -177224.30, 0.00, 0.00, 0.00
53, -29094.13, -56608.61, -27855.79, -60227.06, -171549.20, -171157.47, -179953.31, -177228.03, 0.00, 0.00, 0.00
54, -29593.69, -55770.30, -28493.15, -61112.21, -172230.41, -170422.08, -180389.39, -177363.80, 0.00, 0.00, 0.00
55, -29662.60, -55645.76, -28591.59, -61312.91, -172323.55, -170310.27, -180455.17, -177379.95, 0.00, 0.00, 0.00
56, -29133.66, -56485.56, -27939.48, -60438.82, -171622.20, -171067.69, -180005.30, -177236.83, 0.00, 0.00, 0.00
57, -29004.00, -56644.08, -27793.32, -60204.09, -171479.58, -171235.64, -179909.31, -177208.25, 0.00, 0.00, 0.00
58, -29460.20, -55881.21, -28375.63, -60999.96, -172103.63, -170571.28, -180305.02, -177330.67, 0.02, 0.91, 0.40
59, -29671.16, -55513.59, -28652.41, -61437.93, -172387.73, -170244.78, -180492.75, -177381.56, 0.00, 0.00, 0.00
60, -29170.19, -56311.51, -28023.61, -60618.09, -171718.86, -170948.59, -180060.53, -177238.73, 0.00, 0.00, 0.00
61, -28929.93, -56644.71, -27734.00, -60190.38, -171432.98, -171268.02, -179868.53, -177179.86, 0.00, 0.00, 0.00
62, -29315.29, -56006.96, -28224.31, -60847.86, -171952.44, -170713.30, -180199.94, -177285.31, 0.00, 0.00, 0.00
63, -29657.88, -55425.64, -28666.49, -61501.31, -172413.66, -170198.22, -180501.75, -177375.97, 0.00, 0.00, 0.00
64, -29226.49, -56121.52, -28120.53, -60808.77, -171829.52, -170806.92, -180126.36, -177253.17, 0.00, 0.00, 0.00
65, -28889.45, -56614.38, -27706.82, -60214.37, -171410.11, -171267.27, -179851.88, -177169.22, 0.00, 0.00, 0.00
66, -29184.27, -56123.26, -28076.56, -60698.33, -171805.56, -170843.98, -180101.80, -177248.75, 0.00, 0.00, 0.00
67, -29629.79, -55381.54, -28640.05, -61503.32, -172397.97, -170189.78, -180488.09, -177366.67, 0.00, 0.00, 0.00
68, -29296.88, -55910.83, -28222.45, -60995.27, -171945.89, -170648.13, -180198.94, -177269.75, 0.02, 0.91, 0.40
69, -28867.37, -56542.16, -27698.19, -60259.18, -171407.41, -171227.67, -179847.88, -177160.28, 0.00, 0.00, 0.00
70, -29054.65, -56218.75, -27931.01, -60548.06, -171662.42, -170955.14, -180006.80, -177212.88, 0.00, 0.00, 0.00
71, -29568.32, -55377.03, -28567.54, -61437.72, -172335.72, -170212.75, -180443.30, -177348.14, 0.00, 0.00, 0.00
72, -29373.07, -55687.78, -28324.89, -61170.53, -172067.23, -170479.41, -180276.11, -177292.41, 0.00, 0.00, 0.00
73, -28875.81, -56435.83, -27723.00, -60337.88, -171441.16, -171159.69, -179871.08, -177168.28, 0.00, 0.00, 0.00
74, -28951.70, -56275.79, -27817.91, -60431.20, -171554.17, -171037.08, -179937.59, -177190.23, 0.00, 0.00, 0.00
75, -29485.55, -55402.75, -28463.65, -61322.05, -172240.50, -170270.98, -180378.92, -177323.80, 0.00, 0.00, 0.00
76, -29446.97, -55452.62, -28414.14, -61315.82, -172177.81, -170306.94, -180344.17, -177307.00, 0.00, 0.00, 0.00
77, -28899.73, -56271.34, -27763.53, -60431.61, -171492.05, -171043.67, -179901.89, -177168.95, 0.00, 0.00, 0.00
78, -28853.46, -56298.25, -27713.30, -60320.20, -171453.81, -171091.06, -179872.59, -177163.86, 0.02, 0.90, 0.40
79, -29382.19, -55463.39, -28334.14, -61159.94, -172117.39, -170358.63, -180299.41, -177297.61, 0.00, 0.00, 0.00
80, -29500.21, -55261.87, -28474.94, -61407.04, -172259.19, -170177.77, -180398.13, -177325.86, 0.00, 0.00, 0.00
81, -28937.89, -56094.61, -27822.36, -60538.16, -171561.80, -170920.55, -179950.11, -177184.47, 0.00, 0.00, 0.00
82, -28765.29, -56299.15, -27631.70, -60235.40, -171374.70, -171126.30, -179825.91, -177148.86, 0.00, 0.00, 0.00
83, -29240.57, -55554.95, -28175.98, -60959.11, -171960.80, -170470.42, -180200.56, -177265.28, 0.00, 0.00, 0.00
84, -29516.97, -55102.88, -28495.68, -61439.51, -172298.28, -170063.84, -180424.06, -177329.64, 0.00, 0.00, 0.00
85, -28981.34, -55888.57, -27891.71, -60655.21, -171642.70, -170762.98, -180007.00, -177199.03, 0.00, 0.00, 0.00
86, -28690.94, -56266.60, -27576.04, -60185.22, -171319.55, -171122.88, -179798.13, -177139.36, 0.00, 0.00, 0.00
87, -29086.06, -55655.21, -28017.33, -60756.06, -171799.56, -170580.81, -180103.91, -177235.94, 0.00, 0.00, 0.00
88, -29503.14, -55001.54, -28485.20, -61419.30, -172302.53, -169992.00, -180433.44, -177335.42, 0.02, 0.90, 0.40
89, -29046.52, -55660.07, -27978.95, -60782.53, -171744.34, -170573.73, -180080.25, -177221.50, 0.00, 0.00, 0.00
90, -28636.52, -56196.20, -27538.73, -60158.54, -171281.44, -171079.95, -179782.70, -177131.31, 0.00, 0.00, 0.00
91, -28937.10, -55734.83, -27860.93, -60562.79, -171634.77, -170672.19, -180008.22, -177202.20, 0.00, 0.00, 0.00
92, -29460.96, -54945.48, -28425.05, -61339.27, -172248.11, -169960.89, -180407.42, -177324.34, 0.00, 0.00, 0.00
93, -29137.53, -55421.51, -28068.63, -60911.70, -171847.81, -170380.09, -180158.42, -177245.80, 0.00, 0.00, 0.00
94, -28632.31, -56105.74, -27531.98, -60170.34, -171271.39, -171017.55, -179789.98, -177134.02, 0.00, 0.00, 0.00
95, -28805.72, -55821.69, -27714.64, -60379.86, -171479.50, -170776.91, -179919.89, -177176.75, 0.00, 0.00, 0.00
96, -29393.08, -54948.54, -28332.76, -61212.73, -172159.88, -169988.61, -180358.64, -177310.30, 0.00, 0.00, 0.00
97, -29217.39, -55194.79, -28142.16, -61012.55, -171939.36, -170200.95, -180224.64, -177264.55, 0.02, 0.90, 0.40
98, -28644.12, -55980.25, -27542.40, -60201.45, -171287.22, -170925.95, -179807.89, -177137.14, 0.00, 0.00, 0.00
99, -28690.86, -55874.26, -27591.82, -60225.75, -171355.19, -170849.91, -179847.45, -177152.30, 0.00, 0.00, 0.00
100, -29284.14, -54995.26, -28210.56, -61047.08, -172043.86, -170066.23, -180290.59, -177291.27, 0.00, 0.00, 0.00
101, -29298.02, -54981.54, -28213.47, -61100.70, -172038.59, -170041.27, -180295.61, -177289.83, 0.00, 0.00, 0.00
102, -28700.11, -55824.17, -27583.35, -60266.98, -171342.67, -170805.31, -179850.20, -177149.33, 0.00, 0.00, 0.00
103, -28615.62, -55900.46, -27495.17, -60106.92, -171261.42, -170898.80, -179793.67, -177133.59, 0.00, 0.00, 0.00
104, -29183.06, -55072.37, -28070.68, -60857.00, -171908.38, -170162.55, -180206.89, -177262.31, 0.00, 0.00, 0.00
105, -29367.42, -54791.39, -28251.33, -61142.17, -172107.31, -169908.03, -180339.72, -177299.11, 0.00, 0.00, 0.00
106, -28774.32, -55638.68, -27635.88, -60347.83, -171421.42, -170670.00, -179902.95, -177163.94, 0.00, 0.00, 0.00
107, -28555.40, -55891.74, -27417.30, -60021.18, -171197.80, -170926.78, -179755.88, -177121.56, 0.02, 0.90, 0.40
108, -29049.85, -55164.57, -27911.11, -60656.89, -171756.72, -170284.02, -180110.22, -177231.45, 0.00, 0.00, 0.00
109, -29400.88, -54642.26, -28259.35, -61155.33, -172146.41, -169815.56, -180365.73, -177306.25, 0.00, 0.00, 0.00
110, -28852.75, -55416.81, -27702.48, -60462.27, -171520.48, -170515.53, -179970.47, -177182.70, 0.00, 0.00, 0.00
111, -28509.47, -55850.46, -27363.99, -59984.17, -171161.88, -170933.48, -179739.36, -177113.52, 0.00, 0.00, 0.00
112, -28913.61, -55269.11, -27757.98, -60476.80, -171610.55, -170421.19, -180020.05, -177199.55, 0.00, 0.00, 0.00
113, -29405.46, -54555.96, -28238.79, -61133.18, -172150.92, -169780.94, -180368.05, -177301.42, 0.00, 0.00, 0.00
114, -28946.09, -55179.59, -27780.00, -60588.00, -171631.38, -170344.27, -180041.00, -177195.34, 0.00, 0.00, 0.00
115, -28477.66, -55770.33, -27329.97, -59981.04, -171145.27, -170912.88, -179731.48, -177106.14, 0.00, 0.00, 0.00
116, -28768.68, -55355.37, -27607.02, -60316.65, -171463.16, -170550.95, -179929.55, -177169.28, 0.00, 0.00, 0.00
117, -29369.97, -54518.99, -28183.76, -61087.16, -172108.92, -169798.53, -180343.30, -177293.77, 0.02, 0.91, 0.40
118, -29052.42, -54943.07, -27873.88, -60750.30, -171753.02, -170181.30, -180122.89, -177220.20, 0.00, 0.00, 0.00
119, -28472.19, -55669.34, -27325.88, -60038.35, -171152.98, -170867.72, -179740.36, -177101.25, 0.00, 0.00, 0.00
120, -28626.53, -55433.60, -27477.13, -60211.11, -171331.70, -170676.81, -179850.25, -177137.23, 0.00, 0.00, 0.00
121, -29279.60, -54547.78, -28100.10, -61034.43, -172029.56, -169880.31, -180295.53, -177273.11, 0.00, 0.00, 0.00
122, -29141.82, -54726.21, -27966.81, -60933.74, -171871.03, -170042.95, -180201.45, -177239.36, 0.00, 0.00, 0.00
123, -28495.99, -55547.48, -27357.86, -60161.33, -171198.86, -170809.16, -179773.70, -177107.30, 0.00, 0.00, 0.00
124, -28504.93, -55503.09, -27371.86, -60159.74, -171227.09, -170795.39, -179786.09, -177114.88, 0.00, 0.00, 0.00
125, -29143.77, -54621.16, -27982.46, -60972.02, -171910.97, -170013.05, -180216.77, -177243.09, 0.00, 0.00, 0.00
126, -29201.84, -54532.76, -28036.22, -61116.37, -171963.56, -169933.25, -180254.36, -177247.19, 0.00, 0.00, 0.00
127, -28545.86, -55398.62, -27406.21, -60325.84, -171264.05, -170725.45, -179808.69, -177106.55, 0.02, 0.91, 0.40
128, -28420.96, -55533.46, -27288.51, -60152.36, -171149.02, -170875.48, -179729.09, -177081.64, 0.00, 0.00, 0.00
129, -29000.70, -54725.83, -27852.29, -60911.56, -171780.73, -170176.14, -180126.73, -177200.75, 0.00, 0.00, 0.00
130, -29244.42, -54375.54, -28093.10, -61305.56, -172044.13, -169876.25, -180298.27, -177248.19, 0.00, 0.00, 0.00
131, -28626.55, -55220.74, -27488.15, -60558.03, -171370.81, -170631.00, -179868.08, -177112.17, 0.00, 0.00, 0.00
132, -28359.09, -55540.04, -27237.88, -60215.84, -171112.36, -170947.81, -179696.53, -177061.28, 0.00, 0.00, 0.00
133, -28850.42, -54851.38, -27725.97, -60883.27, -171657.30, -170365.92, -180038.17, -177165.78, 0.00, 0.00, 0.00
134, -29243.10, -54277.59, -28120.08, -61487.43, -172090.86, -169879.36, -180315.34, -177241.02, 0.00, 0.00, 0.00
135, -28698.05, -55022.97, -27581.20, -60836.20, -171493.23, -170538.59, -179932.47, -177114.88, 0.00, 0.00, 0.00
136, -28303.32, -55520.48, -27203.64, -60320.52, -171099.45, -171004.19, -179673.53, -177034.33, 0.00, 0.00, 0.00
137, -28668.95, -54996.33, -27581.92, -60836.62, -171521.63, -170576.45, -179934.47, -177112.95, 0.02, 0.90, 0.40
138, -29180.51, -54254.10, -28116.21, -61620.98, -172105.44, -169956.80, -180307.58, -177221.64, 0.00, 0.00, 0.00
139, -28748.12, -54846.64, -27687.57, -61123.44, -171633.34, -170471.58, -180003.78, -177119.73, 0.00, 0.00, 0.00
140, -28243.64, -55486.01, -27199.32, -60464.82, -171127.56, -171053.33, -179669.94, -177015.13, 0.00, 0.00, 0.00
141, -28469.44, -55145.62, -27458.36, -60815.54, -171419.23, -170788.00, -179844.91, -177067.77, 0.00, 0.00, 0.00
142, -29040.57, -54313.48, -28085.28, -61720.18, -172089.83, -170099.97, -180274.13, -177192.38, 0.00, 0.00, 0.00
143, -28765.60, -54693.35, -27818.47, -61446.55, -171792.03, -170423.55, -180083.53, -177124.38, 0.00, 0.00, 0.00
144, -28185.86, -55459.57, -27236.74, -60665.61, -171186.73, -171096.66, -179687.56, -177000.70, 0.00, 0.00, 0.00
145, -28267.71, -55300.09, -27361.11, -60817.44, -171328.64, -170996.78, -179768.25, -177024.56, 0.00, 0.00, 0.00
146, -28849.84, -54454.48, -28036.06, -61750.87, -172027.25, -170321.52, -180217.03, -177158.41, 0.00, 0.00, 0.00
147, -28751.03, -54589.26, -27962.48, -61705.83, -171923.56, -170449.56, -180156.42, -177131.83, 0.01, 0.93, 0.47
148, -28125.69, -55420.19, -27314.77, -60803.36, -171241.77, -171190.23, -179716.33, -176993.20, 0.00, 0.00, 0.00
149, -28064.16, -55446.12, -27300.22, -60738.67, -171234.39, -171279.00, -179702.34, -176989.88, 0.00, 0.00, 0.00
150, -28599.97, -54672.36, -27970.03, -61633.21, -171917.41, -170706.91, -180134.17, -177116.69, 0.00, 0.00, 0.00
151, -28672.06, -54579.65, -28100.30, -61880.82, -172029.25, -170659.31, -180212.86, -177126.75, 0.00, 0.00, 0.00
152, -28056.22, -55449.04, -27423.04, -61020.91, -171335.64, -171365.34, -179756.81, -176980.19, 0.00, 0.00, 0.00
153, -27860.49, -55698.36, -27258.31, -60772.18, -171179.36, -171590.05, -179644.78, -176940.47, 0.00, 0.00, 0.00
154, -28300.53, -55085.25, -27880.92, -61576.77, -171790.36, -171174.33, -180029.33, -177053.22, 0.00, 0.00, 0.00
155, -28505.56, -54775.38, -28217.58, -62064.94, -172101.55, -171007.61, -180229.08, -177101.94, 0.00, 0.00, 0.00
156, -27955.53, -55549.92, -27570.16, -61249.54, -171452.27, -171606.56, -179804.52, -176966.11, 0.00, 0.00, 0.00
157, -27668.13, -55902.31, -27270.40, -60810.31, -171165.27, -171910.44, -179605.22, -176904.78, 0.01, 0.92, 0.44
158, -28015.38, -55397.34, -27825.51, -61477.84, -171666.55, -171583.81, -179921.45, -176990.27, 0.00, 0.00, 0.00
159, -28342.93, -54924.47, -28388.10, -62197.55, -172152.64, -171287.06, -180236.44, -177074.00, 0.00, 0.00, 0.00
160, -27875.17, -55572.09, -27835.01, -61521.92, -171594.17, -171785.53, -179870.05, -176955.02, 0.00, 0.00, 0.00
161, -27489.27, -56031.80, -27403.08, -60909.60, -171176.11, -172174.25, -179586.45, -176865.22, 0.00, 0.00, 0.00
162, -27725.68, -55643.37, -27882.04, -61408.87, -171556.52, -171992.23, -179825.39, -176929.58, 0.00, 0.00, 0.00
163, -28129.98, -55010.34, -28631.27, -62285.91, -172156.02, -171651.44, -180219.14, -177034.66, 0.00, 0.00, 0.00
164, -27804.16, -55458.48, -28209.60, -61814.51, -171735.23, -172000.11, -179941.75, -176942.06, 0.00, 0.00, 0.00
165, -27371.19, -56013.54, -27610.13, -61066.33, -171201.75, -172416.50, -179587.08, -176835.22, 0.00, 0.00, 0.00
166, -27510.06, -55748.42, -27940.46, -61391.28, -171446.95, -172321.39, -179743.88, -176874.94, 0.00, 0.00, 0.00
167, -27946.54, -55033.84, -28801.07, -62363.85, -172108.72, -171975.66, -180182.88, -176988.66, 0.01, 0.91, 0.41
168, -27749.11, -55307.29, -28566.89, -62149.92, -171869.55, -172206.97, -180028.77, -176931.31, 0.00, 0.00, 0.00
169, -27250.38, -55984.46, -27812.30, -61296.37, -171248.89, -172649.88, -179611.19, -176807.36, 0.00, 0.00, 0.00
170, -27273.84, -55860.85, -27939.21, -61419.62, -171343.23, -172652.09, -179673.08, -176821.31, 0.00, 0.00, 0.00
171, -27717.26, -55082.50, -28817.10, -62435.21, -172014.48, -172342.50, -180135.00, -176945.70, 0.00, 0.00, 0.00
172, -27685.43, -55086.50, -28795.06, -62501.51, -171961.91, -172440.08, -180116.30, -176929.45, 0.00, 0.00, 0.00
173, -27220.47, -55775.02, -27938.94, -61578.43, -171283.67, -172834.09, -179665.42, -176794.64, 0.00, 0.00, 0.00
174, -27153.39, -55833.96, -27864.89, -61473.00, -171229.59, -172877.08, -179627.47, -176780.14, 0.00, 0.00, 0.00
175, -27564.82, -55145.93, -28723.20, -62435.95, -171870.61, -172576.94, -180065.63, -176896.89, 0.00, 0.00, 0.00
176, -27660.62, -54969.13, -28985.45, -62786.72, -172031.05, -172532.23, -180182.75, -176916.53, 0.00, 0.00, 0.00
177, -27194.76, -55702.73, -28126.74, -61857.04, -171354.38, -172895.09, -179720.95, -176776.67, 0.01, 0.92, 0.41
178, -27038.39, -55895.50, -27864.18, -61542.15, -171163.80, -172998.97, -179587.97, -176738.70, 0.00, 0.00, 0.00
179, -27398.01, -55262.03, -28623.53, -62405.66, -171725.30, -172734.66, -179976.02, -176842.45, 0.00, 0.00, 0.00
180, -27614.37, -54870.76, -29118.64, -63029.95, -172069.25, -172592.61, -180223.61, -176902.61, 0.00, 0.00, 0.00
181, -27204.38, -55570.82, -28320.69, -62177.45, -171449.36, -172919.58, -179798.52, -176777.91, 0.00, 0.00, 0.00
182, -26968.59, -55925.83, -27867.06, -61637.93, -171126.02, -173083.13, -179570.27, -176717.16, 0.00, 0.00, 0.00
183, -27263.29, -55409.79, -28484.77, -62324.69, -171589.64, -172867.52, -179887.89, -176804.80, 0.00, 0.00, 0.00
184, -27576.96, -54844.07, -29177.27, -63150.29, -172091.14, -172644.02, -180241.23, -176893.94, 0.00, 0.00, 0.00
185, -27227.66, -55427.47, -28503.66, -62446.79, -171564.11, -172912.50, -179878.70, -176782.05, 0.00, 0.00, 0.00
186, -26904.84, -55918.63, -27874.21, -61716.29, -171109.91, -173124.25, -179559.30, -176692.77, 0.01, 0.91, 0.40
187, -27110.83, -55535.50, -28316.04, -62199.38, -171445.81, -172962.84, -179788.69, -176756.83, 0.00, 0.00, 0.00
188, -27489.96, -54844.68, -29146.49, -63171.53, -172050.73, -172683.36, -180215.14, -176868.77, 0.00, 0.00, 0.00
189, -27241.95, -55268.98, -28677.87, -62705.65, -171676.75, -172882.84, -179960.33, -176791.31, 0.00, 0.00, 0.00
190, -26848.94, -55881.53, -27906.24, -61825.88, -171117.22, -173147.09, -179566.17, -176683.14, 0.00, 0.00, 0.00
191, -26962.66, -55656.29, -28160.76, -62091.54, -171318.88, -173053.09, -179704.13, -176727.28, 0.00, 0.00, 0.00
192, -27378.40, -54906.03, -29068.24, -63140.52, -171984.23, -172748.73, -180175.14, -176856.16, 0.00, 0.00, 0.00
193, -27248.68, -55122.95, -28846.31, -62957.62, -171793.06, -172860.11, -180049.42, -176813.56, 0.00, 0.00, 0.00
194, -26815.43, -55827.77, -27977.72, -61980.20, -171155.84, -173161.84, -179601.17, -176687.92, 0.00, 0.00, 0.00
195, -26824.66, -55750.05, -28029.04, -62013.41, -171210.47, -173126.92, -179634.30, -176699.83, 0.00, 0.00, 0.00
196, -27232.83, -54995.84, -28930.22, -63047.83, -171874.97, -172811.03, -180101.00, -176826.56, 0.01, 0.91, 0.41
197, -27224.74, -54976.84, -28971.59, -63162.90, -171880.70, -172816.06, -180110.78, -176819.92, 0.00, 0.00, 0.00
198, -26777.14, -55721.69, -28057.41, -62147.68, -171202.11, -173132.97, -179632.81, -176684.97, 0.00, 0.00, 0.00
199, -26696.72, -55803.95, -27906.76, -61948.91, -171111.84, -173161.11, -179563.11, -176669.95, 0.00, 0.00, 0.00
200, -27081.02, -55101.38, -28741.19, -62901.99, -171734.95, -172861.45, -179997.97, -176792.81, 0.00, 0.00, 0.00
201, -27207.75, -54860.93, -29048.88, -63313.23, -171946.69, -172767.28, -180152.63, -176832.11, 0.00, 0.00, 0.00
202, -26785.26, -55600.90, -28163.62, -62338.14, -171281.39, -173084.91, -179688.17, -176704.17, 0.00, 0.00, 0.00
203, -26619.59, -55836.85, -27820.52, -61912.07, -171050.05, -173171.03, -179519.39, -176663.44, 0.00, 0.00, 0.00
204, -26951.44, -55224.25, -28522.88, -62700.73, -171583.73, -172883.55, -179883.75, -176764.89, 0.00, 0.00, 0.00
205, -27189.26, -54772.48, -29050.65, -63349.85, -171971.41, -172673.91, -180154.50, -176835.80, 0.00, 0.00, 0.00
206, -26818.79, -55447.12, -28252.67, -62484.72, -171367.11, -172953.56, -179734.03, -176719.80, 0.01, 0.91, 0.41
207, -26585.28, -55838.25, -27728.66, -61861.40, -171010.83, -173093.44, -179478.53, -176660.11, 0.00, 0.00, 0.00
208, -26865.79, -55360.46, -28252.85, -62451.46, -171441.55, -172812.75, -179762.17, -176745.08, 0.00, 0.00, 0.00
209, -27218.66, -54754.11, -28935.67, -63269.27, -171984.69, -172450.83, -180128.28, -176846.73, 0.00, 0.00, 0.00
210, -26935.39, -55298.71, -28285.66, -62578.69, -171496.56, -172646.55, -179793.30, -176756.45, 0.00, 0.00, 0.00
211, -26638.38, -55814.29, -27590.28, -61781.47, -171013.25, -172833.94, -179460.41, -176675.41, 0.00, 0.00, 0.00
212, -26867.62, -55458.25, -27895.42, -62143.95, -171313.91, -172543.13, -179656.63, -176742.03, 0.00, 0.00, 0.00
213, -27328.05, -54724.02, -28607.15, -63038.38, -171950.25, -171983.81, -180081.94, -176868.98, 0.00, 0.00, 0.00
214, -27177.89, -55066.34, -28122.45, -62572.84, -171621.83, -172010.89, -179867.20, -176815.17, 0.00, 0.00, 0.00
215, -26835.82, -55623.86, -27275.45, -61618.10, -171042.94, -172288.16, -179483.66, -176724.52, 0.00, 0.00, 0.00
216, -27030.03, -55265.49, -27348.12, -61731.58, -171220.30, -172000.22, -179594.89, -176781.42, 0.01, 0.90, 0.39
217, -27634.11, -54291.18, -28026.65, -62637.10, -171902.66, -171202.78, -180058.00, -176934.14, 0.00, 0.00, 0.00
218, -27636.75, -54342.25, -27808.30, -62463.33, -171741.44, -171098.75, -179979.73, -176916.63, 0.00, 0.00, 0.00
219, -27196.02, -55079.05, -27021.71, -61470.00, -171057.69, -171510.56, -179532.02, -176794.48, 0.00, 0.00, 0.00
220, -27275.21, -54984.73, -26954.15, -61311.26, -171072.13, -171315.77, -179542.27, -176814.39, 0.00, 0.00, 0.00
221, -27908.68, -54045.84, -27558.29, -61983.71, -171748.66, -170452.41, -179985.69, -176965.73, 0.00, 0.00, 0.00
222, -28058.61, -53886.61, -27576.33, -61938.00, -171797.05, -170209.72, -180036.05, -176988.30, 0.00, 0.00, 0.00
223, -27539.56, -54756.56, -26868.67, -60925.91, -171061.52, -170834.42, -179582.61, -176853.20, 0.00, 0.00, 0.00
224, -27484.38, -54921.63, -26704.30, -60430.09, -170912.81, -170882.03, -179490.42, -176839.78, 0.00, 0.00, 0.00
225, -28153.43, -54141.04, -27243.54, -60461.02, -171551.80, -170070.89, -179900.95, -176987.28, 0.00, 0.00, 0.00
226, -28502.43, -53794.50, -27459.72, -60233.23, -171844.27, -169640.66, -180091.44, -177058.38, 0.01, 0.90, 0.39
227, -27904.95, -54626.07, -26834.86, -59583.60, -171173.83, -170341.66, -179656.03, -176917.73, 0.00, 0.00, 0.00
228, -27624.92, -54941.52, -26551.21, -59229.37, -170895.05, -170625.98, -179469.28, -176861.45, 0.00, 0.00, 0.00
229, -28161.92, -54249.83, -26971.51, -59268.80, -171426.41, -169943.23, -179808.00, -176982.84, 0.00, 0.00, 0.00
230, -28629.39, -53636.74, -27338.75, -59306.24, -171888.13, -169321.80, -180108.88, -177092.78, 0.00, 0.00, 0.00
231, -28043.97, -54377.93, -26862.15, -59048.14, -171297.84, -169986.75, -179726.39, -176971.36, 0.00, 0.00, 0.00
232, -27581.98, -54904.62, -26533.15, -58840.94, -170902.38, -170469.03, -179458.95, -176885.94, 0.00, 0.00, 0.00
233, -27961.61, -54412.28, -26872.81, -58856.01, -171337.38, -169941.20, -179721.25, -176976.41, 0.00, 0.00, 0.00
234, -28505.54, -53693.52, -27360.61, -58919.66, -171952.83, -169177.80, -180105.88, -177109.56, 0.00, 0.00, 0.00
235, -27999.83, -54325.33, -27061.93, -58800.20, -171526.92, -169714.55, -179831.63, -177021.70, 0.00, 0.00, 0.00
236, -27381.11, -55087.14, -26699.54, -58652.41, -171024.48, -170384.33, -179503.91, -176917.88, 0.02, 0.91, 0.38
237, -27575.08, -54849.14, -26951.58, -58648.88, -171330.97, -170043.59, -179679.13, -176983.59, 0.00, 0.00, 0.00
238, -28178.13, -54124.34, -27507.06, -58725.99, -172044.86, -169183.14, -180115.25, -177138.42, 0.00, 0.00, 0.00
239, -27930.56, -54724.71, -27391.48, -58696.84, -171820.47, -169528.75, -179969.73, -177096.75, 0.00, 0.00, 0.00
240, -27420.18, -55787.40, -27018.61, -58597.49, -171257.00, -170342.77, -179592.73, -176975.23, 0.00, 0.00, 0.00
241, -27749.18, -55851.62, -27157.75, -58583.99, -171422.41, -170215.59, -179684.03, -177007.38, 0.00, 0.00, 0.00
242, -28712.54, -55148.50, -27669.74, -58644.18, -172139.63, -169344.45, -180137.33, -177162.41, 0.00, 0.00, 0.00
243, -28886.37, -55472.38, -27616.29, -58603.88, -172051.91, -169400.45, -180074.31, -177132.97, 0.00, 0.00, 0.00
244, -28374.42, -56586.08, -27141.05, -58459.58, -171341.09, -170207.81, -179615.61, -176956.72, 0.00, 0.00, 0.00
245, -28496.10, -56767.24, -27129.56, -58371.33, -171311.39, -170225.53, -179570.44, -176933.34, 0.00, 0.00, 0.00
246, -29260.60, -55953.21, -27601.50, -58346.79, -171987.64, -169358.45, -179973.47, -177059.31, 0.01, 0.89, 0.38
247, -29800.84, -56022.45, -27715.40, -58321.38, -172119.22, -169128.58, -180050.63, -177050.53, 0.00, 0.00, 0.00
248, -30043.85, -57480.71, -27276.75, -58253.85, -171422.88, -169960.69, -179589.95, -176841.20, 0.00, 0.00, 0.00
249, -30551.84, -58212.39, -27168.39, -58206.96, -171233.42, -170178.11, -179460.89, -176739.53, 0.00, 0.00, 0.00
250, -31242.91, -57675.12, -27565.20, -58203.27, -171811.39, -169425.28, -179830.66, -176818.08, 0.00, 0.00, 0.00
251, -31823.47, -57446.66, -27775.08, -58179.91, -172131.36, -168996.48, -180033.11, -176838.81, 0.00, 0.00, 0.00
252, -32286.85, -58762.93, -27351.34, -58111.34, -171471.56, -169823.56, -179601.31, -176625.47, 0.00, 0.00, 0.00
253, -32749.71, -59568.45, -27137.86, -58060.64, -171130.73, -170251.31, -179369.19, -176486.50, 0.00, 0.00, 0.00
254, -33120.37, -59023.31, -27421.28, -58067.53, -171579.41, -169639.91, -179654.53, -176535.09, 0.00, 0.00, 0.00
255, -33416.26, -58407.70, -27691.15, -58086.95, -172032.23, -169015.81, -179954.98, -176573.61, 0.00, 0.00, 0.00
0, -33911.20, -59614.92, -27356.99, -58105.35, -171456.61, -169778.56, -179587.39, -176343.45, -0.03, 0.99, 0.42
1, -34406.46, -60688.38, -27131.98, -58119.54, -171003.58, -170434.81, -179283.42, -176135.78, 0.00, 0.00, 0.00
2, -34644.13, -60327.49, -27413.86, -58143.28, -171356.77, -170009.91, -179508.66, -176109.77, 0.00, 0.00, 0.00
3, -34744.46, -59472.58, -27829.40, -58163.42, -171966.36, -169230.91, -179914.38, -176141.89, 0.00, 0.00, 0.00
4, -35229.95, -60538.67, -27640.41, -58212.50, -171568.16, -169839.41, -179661.30, -175935.36, 0.00, 0.00, 0.00
5, -35826.27, -61959.10, -27360.01, -58266.04, -171038.11, -170702.64, -179318.34, -175721.73, 0.00, 0.00, 0.00
6, -36097.75, -61895.75, -27548.46, -58310.71, -171304.39, -170509.63, -179493.53, -175728.20, 0.00, 0.00, 0.00
7, -36119.17, -60916.35, -28006.31, -58348.04, -172044.08, -169692.50, -179999.52, -175885.36, 0.00, 0.00, 0.00
8, -36534.68, -61728.41, -27926.22, -58436.87, -171882.52, -170109.80, -179900.84, -175788.66, 0.00, 0.00, 0.00
9, -37186.73, -63430.27, -27586.14, -58544.69, -171301.13, -171137.83, -179505.09, -175548.09, -0.02, 0.93, 0.39
10, -37568.68, -63757.16, -27685.41, -58654.91, -171485.34, -171207.47, -179610.25, -175494.97, 0.00, 0.00, 0.00
11, -37557.46, -62699.79, -28123.10, -58725.88, -172260.38, -170366.16, -180120.16, -175608.02, 0.00, 0.00, 0.00
12, -37718.57, -62897.11, -28094.78, -58803.35, -172224.52, -170406.19, -180103.67, -175489.55, 0.00, 0.00, 0.00
13, -38159.28, -64415.20, -27633.37, -58888.93, -171446.86, -171335.77, -179573.27, -175174.22, 0.00, 0.00, 0.00
14, -38288.67, -64613.50, -27528.27, -58921.92, -171307.47, -171388.97, -179459.11, -175078.89, 0.00, 0.00, 0.00
15, -38029.68, -63266.97, -27867.51, -58907.84, -171928.06, -170423.00, -179859.78, -175230.63, 0.00, 0.00, 0.00
16, -37949.33, -62866.61, -27959.33, -58925.52, -172066.38, -170067.59, -179949.70, -175274.02, 0.00, 0.00, 0.00
17, -38297.95, -64342.54, -27564.55, -58986.52, -171283.22, -170909.81, -179404.50, -175067.03, 0.00, 0.00, 0.00
18, -38443.41, -64836.64, -27474.96, -59017.90, -171031.92, -171141.06, -179211.72, -175052.17, 0.00, 0.00, 0.00
19, -38228.46, -63657.39, -27882.88, -59029.05, -171653.17, -170336.05, -179628.73, -175365.86, -0.02, 0.95, 0.42
20, -38083.48, -62861.20, -28172.61, -59066.00, -172087.61, -169770.19, -179935.92, -175663.09, 0.00, 0.00, 0.00
21, -38376.71, -64204.36, -27819.40, -59144.37, -171405.73, -170496.34, -179494.52, -175620.64, 0.00, 0.00, 0.00
22, -38516.84, -64930.79, -27626.89, -59177.63, -171026.80, -170857.09, -179252.77, -175742.08, 0.00, 0.00, 0.00
23, -38247.81, -64029.27, -27938.43, -59164.64, -171516.64, -170167.36, -179638.19, -176249.89, 0.00, 0.00, 0.00
24, -37819.60, -63417.64, -28168.88, -59171.12, -171993.89, -169349.95, -180081.20, -176810.14, 0.00, 0.00, 0.00
25, -37866.74, -64936.31, -27683.46, -59171.23, -171252.11, -169818.28, -179700.16, -176956.14, 0.00, 0.00, 0.00
26, -38031.04, -66138.67, -27400.98, -59126.11, -170600.38, -170331.73, -179375.66, -177141.91, 0.00, 0.00, 0.00
27, -37918.41, -65654.88, -27604.43, -59044.61, -171035.20, -169990.95, -179650.67, -177696.39, 0.00, 0.00, 0.00
28, -37705.65, -64482.70, -27989.59, -58956.57, -171948.66, -169315.31, -180218.38, -178452.39, 0.00, 0.00, 0.00
29, -37891.48, -65410.97, -27948.89, -58980.82, -171667.14, -169715.36, -180043.23, -178829.59, -0.03, 0.95, 0.36
30, -38172.33, -66824.98, -27741.06, -59055.34, -171118.98, -170351.98, -179671.20, -179013.11, 0.00, 0.00, 0.00
31, -38038.60, -66539.66, -27900.79, -59072.62, -171433.63, -170104.95, -179864.02, -179227.55, 0.00, 0.00, 0.00
32, -37577.04, -65114.50, -28347.58, -59091.19, -172274.48, -169255.94, -180411.78, -179433.45, 0.00, 0.00, 0.00
33, -37446.17, -65441.08, -28193.97, -59167.28, -172073.25, -169256.59, -180290.08, -179151.28, 0.00, 0.00, 0.00
34, -37538.57, -66804.47, -27702.33, -59268.62, -171270.45, -169782.59, -179769.80, -178628.92, 0.00, 0.00, 0.00
35, -37381.77, -66672.34, -27661.94, -59358.63, -171268.84, -169626.09, -179799.06, -178469.78, 0.00, 0.00, 0.00
36, -37068.64, -65169.21, -28054.95, -59414.89, -172030.95, -168840.00, -180338.98, -178648.59, 0.00, 0.00, 0.00
37, -37085.14, -65055.18, -28082.19, -59448.39, -172101.31, -168750.50, -180389.55, -178511.89, 0.00, 0.00, 0.00
38, -37430.81, -66563.09, -27669.83, -59446.41, -171369.34, -169457.55, -179872.94, -177976.56, 0.00, 0.00, 0.00
39, -37454.39, -66785.85, -27614.93, -59406.93, -171255.47, -169523.53, -179771.50, -177600.45, -0.00, 0.93, 0.36
40, -37106.62, -65362.27, -28026.00, -59370.23, -171938.91, -168776.78, -180234.58, -177618.11, 0.00, 0.00, 0.00
41, -36947.10, -64785.34, -28217.49, -59362.05, -172218.05, -168485.44, -180442.36, -177717.42, 0.00, 0.00, 0.00
42, -37258.14, -66246.74, -27853.33, -59363.04, -171489.75, -169232.30, -179970.97, -177426.36, 0.00, 0.00, 0.00
43, -37379.69, -66811.53, -27741.58, -59348.68, -171238.00, -169545.38, -179808.20, -177306.13, 0.00, 0.00, 0.00
44, -37118.33, -65656.68, -28106.54, -59351.34, -171870.06, -168982.11, -180230.67, -177549.75, 0.00, 0.00, 0.00
45, -36899.64, -64728.95, -28394.00, -59362.39, -172375.11, -168517.53, -180586.48, -177753.52, 0.00, 0.00, 0.00
46, -37202.64, -66028.80, -28048.26, -59354.95, -171740.25, -169180.58, -180182.30, -177497.39, 0.00, 0.00, 0.00
47, -37429.09, -66887.41, -27821.04, -59331.72, -171339.64, -169636.92, -179926.73, -177331.14, 0.00, 0.00, 0.00
48, -37257.59, -65995.96, -28091.85, -59344.24, -171840.72, -169198.20, -180262.72, -177529.33, 0.00, 0.00, 0.00
49, -36990.30, -64782.10, -28447.89, -59377.99, -172505.11, -168580.78, -180713.31, -177788.50, 0.02, 0.91, 0.36
50, -37212.37, -65779.66, -28174.48, -59344.84, -172016.47, -169075.39, -180405.42, -177563.30, 0.00, 0.00, 0.00
51, -37464.50, -66849.95, -27879.60, -59282.37, -171481.77, -169623.58, -180061.05, -177324.09, 0.00, 0.00, 0.00
52, -37348.33, -66240.71, -28067.38, -59287.98, -171807.28, -169317.44, -180283.53, -177453.78, 0.00, 0.00, 0.00
53, -37037.11, -64842.81, -28474.36, -59343.57, -172536.59, -168601.44, -180778.06, -177755.97, 0.00, 0.00, 0.00
54, -37152.02, -65452.97, -28303.34, -59305.14, -172219.98, -168912.06, -180585.59, -177614.38, 0.00, 0.00, 0.00
55, -37419.21, -66685.29, -27948.66, -59199.00, -171571.92, -169553.38, -180168.98, -177331.00, 0.00, 0.00, 0.00
56, -37370.02, -66380.12, -28045.38, -59189.96, -171726.28, -169404.14, -180275.75, -177391.64, 0.00, 0.00, 0.00
57, -37069.74, -64950.10, -28467.83, -59279.53, -172475.27, -168664.56, -180779.11, -177701.64, 0.00, 0.00, 0.00
58, -37101.04, -65129.09, -28421.58, -59255.81, -172389.52, -168765.61, -180737.73, -177657.05, 0.00, 0.00, 0.00
59, -37386.51, -66454.51, -28039.17, -59109.45, -171703.66, -169483.97, -180295.36, -177360.77, 0.01, 0.90, 0.37
60, -37397.17, -66441.38, -28046.48, -59066.79, -171711.39, -169491.55, -180305.86, -177363.61, 0.00, 0.00, 0.00
61, -37120.26, -65091.05, -28448.61, -59180.85, -172423.73, -168771.73, -180781.89, -177665.66, 0.00, 0.00, 0.00
62, -37068.51, -64855.04, -28524.33, -59194.77, -172557.73, -168644.44, -180887.41, -177719.03, 0.00, 0.00, 0.00
63, -37346.39, -66167.17, -28134.34, -59003.42, -171868.55, -169358.41, -180443.66, -177416.08, 0.00, 0.00, 0.00
64, -37421.09, -66448.47, -28052.27, -58918.61, -171730.06, -169518.81, -180356.94, -177346.80, 0.00, 0.00, 0.00
65, -37195.36, -65272.39, -28416.46, -59055.12, -172377.14, -168863.92, -180788.38, -177611.88, 0.00, 0.00, 0.00
66, -37072.63, -64674.46, -28598.36, -59122.71, -172701.44, -168517.64, -181016.84, -177744.33, 0.00, 0.00, 0.00
67, -37327.73, -65877.92, -28235.44, -58901.79, -172050.73, -169176.50, -180604.22, -177471.14, 0.00, 0.00, 0.00
68, -37453.45, -66410.95, -28071.26, -58758.29, -171767.83, -169468.70, -180423.09, -177345.94, 0.00, 0.00, 0.00
69, -37267.64, -65466.25, -28358.78, -58889.00, -172279.89, -168916.84, -180765.70, -177545.88, 0.01, 0.90, 0.37
70, -37084.65, -64579.80, -28629.95, -59031.76, -172758.73, -168391.47, -181099.81, -177732.08, 0.00, 0.00, 0.00
71, -37308.39, -65589.27, -28327.93, -58808.80, -172208.78, -168957.20, -180758.13, -177497.45, 0.00, 0.00, 0.00
72, -37492.86, -66348.52, -28096.30, -58599.97, -171801.77, -169388.22, -180498.91, -177313.31, 0.00, 0.00, 0.00
73, -37376.72, -65672.58, -28313.76, -58717.25, -172188.16, -168971.94, -180755.48, -177447.28, 0.00, 0.00, 0.00
74, -37167.30, -64623.96, -28643.92, -58941.64, -172776.98, -168328.48, -181153.16, -177663.42, 0.00, 0.00, 0.00
75, -37347.33, -65380.35, -28425.32, -58753.04, -172374.80, -168754.02, -180903.08, -177493.31, 0.00, 0.00, 0.00
76, -37588.04, -66336.04, -28141.22, -58480.77, -171869.78, -169310.81, -180576.00, -177276.94, 0.00, 0.00, 0.00
77, -37540.80, -65943.84, -28277.73, -58559.22, -172114.17, -169046.59, -180736.17, -177343.92, 0.00, 0.00, 0.00
78, -37318.47, -64816.61, -28644.86, -58858.89, -172768.67, -168323.42, -181175.80, -177564.80, 0.00, 0.00, 0.00
79, -37429.56, -65255.22, -28524.02, -58735.15, -172538.92, -168557.72, -181043.77, -177450.30, 0.01, 0.91, 0.39
80, -37699.23, -66328.69, -28202.85, -58398.78, -171961.06, -169192.02, -180676.00, -177202.34, 0.00, 0.00, 0.00
81, -37708.42, -66195.60, -28262.42, -58417.40, -172070.03, -169071.78, -180753.00, -177209.45, 0.00, 0.00, 0.00
82, -37483.74, -65085.64, -28632.92, -58760.99, -172734.41, -168327.81, -181202.84, -177423.27, 0.00, 0.00, 0.00
83, -37512.75, -65172.36, -28618.10, -58734.17, -172700.28, -168335.88, -181206.72, -177379.03, 0.00, 0.00, 0.00
84, -37795.19, -66299.66, -28273.55, -58348.49, -172074.14, -169014.86, -180819.95, -177114.69, 0.00, 0.00, 0.00
85, -37858.33, -66409.94, -28261.66, -58294.29, -172048.48, -169043.44, -180822.34, -177065.53, 0.00, 0.00, 0.00
86, -37643.71, -65387.39, -28608.20, -58639.62, -172669.05, -168331.88, -181250.77, -177244.14, 0.00, 0.00, 0.00
87, -37594.94, -65141.83, -28703.13, -58727.80, -172833.34, -168124.47, -181392.47, -177265.22, 0.00, 0.00, 0.00
88, -37876.48, -66252.16, -28364.59, -58327.05, -172214.48, -168802.64, -181018.08, -177011.08, 0.00, 0.00, 0.00
89, -37986.21, -66597.63, -28272.68, -58179.62, -172048.44, -168985.42, -180934.17, -176916.11, 0.01, 0.91, 0.39
90, -37790.45, -65712.02, -28578.63, -58493.66, -172595.67, -168348.44, -181320.11, -177066.83, 0.00, 0.00, 0.00
91, -37660.72, -65173.04, -28764.32, -58684.50, -172927.86, -167942.39, -181577.45, -177142.13, 0.00, 0.00, 0.00
92, -37917.30, -66175.55, -28459.74, -58302.89, -172365.73, -168561.88, -181252.44, -176913.77, 0.00, 0.00, 0.00
93, -38073.89, -66725.99, -28302.11, -58064.71, -172077.67, -168887.00, -181104.64, -176781.94, 0.00, 0.00, 0.00
94, -37898.32, -66007.47, -28548.12, -58308.68, -172516.88, -168358.11, -181435.47, -176896.77, 0.00, 0.00, 0.00
95, -37677.93, -65202.34, -28809.36, -58583.00, -172988.92, -167770.89, -181799.30, -177025.47, 0.00, 0.00, 0.00
96, -37876.62, -66016.79, -28553.66, -58246.01, -172514.78, -168273.34, -181546.14, -176843.08, 0.00, 0.00, 0.00
97, -38062.63, -66723.38, -28330.59, -57921.97, -172113.92, -168707.83, -181333.86, -176683.20, 0.00, 0.00, 0.00
98, -37930.06, -66208.81, -28511.26, -58086.19, -172436.08, -168312.55, -181594.64, -176763.72, 0.01, 0.91, 0.39
99, -37658.69, -65236.22, -28832.23, -58428.78, -173013.53, -167613.30, -182033.77, -176930.86, 0.00, 0.00, 0.00
100, -37788.42, -65793.09, -28659.21, -58180.34, -172685.58, -167951.81, -181885.75, -176806.86, 0.00, 0.00, 0.00
101, -38011.42, -66647.27, -28385.35, -57784.15, -172188.38, -168495.30, -181620.56, -176627.03, 0.00, 0.00, 0.00
102, -37921.43, -66328.11, -28497.56, -57852.95, -172387.44, -168235.14, -181811.14, -176673.92, 0.00, 0.00, 0.00
103, -37619.01, -65270.24, -28846.40, -58215.16, -173013.27, -167474.02, -182293.48, -176859.20, 0.00, 0.00, 0.00
104, -37656.65, -65520.80, -28773.38, -58069.99, -172863.73, -167614.16, -182282.63, -176800.50, 0.00, 0.00, 0.00
105, -37890.32, -66470.76, -28471.90, -57622.91, -172309.19, -168235.72, -182007.59, -176610.72, 0.00, 0.00, 0.00
0, -37203.76, -64743.01, -29068.58, -57653.24, -173258.92, -166850.88, -183683.80, 0.00, 0.02, 0.91, 0.39
1, -37425.40, -65710.35, -28770.58, -57186.69, -172692.67, -167490.88, -183451.06, 0.00, 0.00, 0.00, 0.00
2, -37493.46, -66000.38, -28699.08, -56979.98, -172538.67, -167658.86, -183479.25, 0.00, 0.00, 0.00, 0.00
3, -37249.47, -65101.84, -29016.27, -57264.43, -173077.22, -166996.42, -183959.08, 0.00, 0.00, 0.00, 0.00
4, -37061.36, -64478.50, -29242.12, -57447.56, -173452.48, -166533.66, -184344.78, 0.00, 0.00, 0.00, 0.00
5, -37277.01, -65379.50, -28977.22, -57015.36, -172944.09, -167119.36, -184153.20, 0.00, 0.00, 0.00, 0.00
6, -37409.87, -65889.07, -28838.67, -56717.50, -172675.09, -167430.78, -184107.05, 0.00, 0.01, 0.90, 0.39
7, -37226.85, -65184.21, -29098.64, -56934.20, -173112.67, -166902.23, -184514.89, 0.00, 0.00, 0.00, 0.00
8, -36997.14, -64351.56, -29393.93, -57212.06, -173618.88, -166293.70, -184969.70, 0.00, 0.00, 0.00, 0.00
9, -37194.40, -65116.13, -29180.49, -56845.89, -173209.63, -166778.25, -184820.88, 0.00, 0.00, 0.00, 0.00
10, -37397.42, -65841.66, -28971.53, -56461.91, -172828.23, -167231.55, -184674.33, 0.00, 0.00, 0.00, 0.00
11, -37279.45, -65355.87, -29152.98, -56592.25, -173141.19, -166853.33, -184974.16, 0.00, 0.00, 0.00, 0.00
12, -37016.28, -64380.60, -29486.64, -56937.51, -173728.06, -166155.16, -185460.48, 0.00, 0.00, 0.00, 0.00
13, -37157.85, -64915.63, -29343.06, -56659.57, -173455.98, -166483.14, -185388.41, 0.00, 0.00, 0.00, 0.00
14, -37413.64, -65808.41, -29077.94, -56193.65, -172984.56, -167047.56, -185174.81, 0.00, 0.00, 0.00, 0.00
15, -37357.61, -65540.61, -29181.41, -56225.72, -173170.73, -166821.03, -185384.45, 0.00, 0.00, 0.00, 0.00
16, -37079.84, -64503.49, -29528.87, -56607.33, -173789.61, -166084.72, -185882.70, 0.00, 0.02, 0.91, 0.39
17, -37147.73, -64750.25, -29472.54, -56443.07, -173681.59, -166218.78, -185909.78, 0.00, 0.00, 0.00, 0.00
18, -37446.34, -65764.89, -29171.39, -55912.98, -173148.78, -166859.80, -185648.06, 0.00, 0.00, 0.00, 0.00
19, -37464.52, -65737.17, -29201.82, -55842.70, -173209.25, -166796.67, -185768.97, 0.00, 0.00, 0.00, 0.00
20, -37189.48, -64713.57, -29542.34, -56235.85, -173820.02, -166074.13, -186255.97, 0.00, 0.00, 0.00, 0.00
21, -37165.50, -64641.33, -29576.95, -56199.70, -173884.63, -165993.14, -186393.88, 0.00, 0.00, 0.00, 0.00
22, -37481.28, -65697.74, -29268.07, -55632.95, -173335.31, -166662.31, -186129.94, 0.00, 0.00, 0.00, 0.00
23, -37561.97, -65883.91, -29234.20, -55454.43, -173280.17, -166748.97, -186192.08, 0.00, 0.00, 0.00, 0.00
24, -37297.26, -64925.87, -29554.01, -55829.49, -173849.27, -166083.42, -186676.53, 0.00, 0.00, 0.00, 0.00
25, -37175.60, -64523.72, -29699.19, -55948.34, -174102.72, -165796.94, -186974.69, 0.00, 0.00, 0.00, 0.00
26, -37492.08, -65534.57, -29423.72, -55387.80, -173593.52, -166433.30, -186780.17, 0.00, 0.01, 0.91, 0.39
27, -37621.47, -65911.31, -29333.47, -55099.33, -173429.44, -166658.98, -186820.67, 0.00, 0.00, 0.00, 0.00
28, -37354.14, -65055.58, -29611.37, -55429.60, -173921.53, -166085.34, -187310.63, 0.00, 0.00, 0.00, 0.00
29, -37116.77, -64353.75, -29841.25, -55696.16, -174323.31, -165624.34, -187500.02, 0.00, 0.00, 0.00, 0.00
30, -37382.29, -65220.78, -29610.63, -55179.82, -173884.89, -166175.06, -187500.02, 0.00, 0.00, 0.00, 0.00
31, -37563.56, -65781.78, -29463.35, -54775.83, -173611.00, -166525.88, -187500.02, 0.00, 0.00, 0.00, 0.00
32, -37340.84, -65097.53, -29690.58, -55034.33, -174001.33, -166077.41, -187500.02, 0.00, 0.00, 0.00, 0.00
33, -37017.93, -64165.02, -29982.38, -55431.52, -174512.61, -165479.03, -187500.02, 0.00, 0.00, 0.00, 0.00
34, -37216.46, -64830.72, -29807.77, -55001.52, -174174.84, -165907.06, -187500.02, 0.00, 0.00, 0.00, 0.00
35, -37454.91, -65559.01, -29611.95, -54503.07, -173812.25, -166376.92, -187500.02, 0.00, 0.00, 0.00, 0.00
36, -37296.63, -65082.18, -29772.84, -54674.67, -174085.30, -166076.05, -187500.02, 0.00, 0.01, 0.91, 0.39
37, -36919.80, -64009.16, -30092.44, -55180.51, -174652.61, -165406.38, -187500.02, 0.00, 0.00, 0.00, 0.00
38, -37033.04, -64410.28, -29985.91, -54898.77, -174445.30, -165684.22, -187500.02, 0.00, 0.00, 0.00, 0.00
39, -37325.94, -65288.57, -29738.26, -54325.18, -173997.47, -166269.70, -187500.02, 0.00, 0.00, 0.00, 0.00
40, -37233.96, -65027.08, -29812.40, -54394.71, -174133.31, -166127.44, -187500.02, 0.00, 0.00, 0.00, 0.00
41, -36842.47, -63922.32, -30121.88, -54968.64, -174693.39, -165440.95, -187500.02, 0.00, 0.00, 0.00, 0.00
42, -36859.77, -64028.89, -30081.24, -54872.28, -174622.59, -165507.67, -187500.02, 0.00, 0.00, 0.00, 0.00
43, -37202.22, -65023.48, -29781.06, -54240.02, -174105.42, -166128.44, -187500.02, 0.00, 0.00, 0.00, 0.00
44, -37217.42, -65030.03, -29761.46, -54184.70, -174105.83, -166119.39, -187500.02, 0.00, 0.00, 0.00, 0.00
45, -36864.30, -64004.17, -30030.73, -54762.84, -174627.33, -165456.02, -187500.02, 0.00, 0.00, 0.00, 0.00
46, -36800.83, -63840.85, -30055.99, -54843.18, -174701.66, -165348.75, -187500.02, 0.00, 0.01, 0.91, 0.39
47, -37176.89, -64896.21, -29742.26, -54176.38, -174163.17, -166012.06, -187500.02, 0.00, 0.00, 0.00, 0.00
48, -37281.84, -65146.97, -29650.08, -53963.46, -174040.22, -166150.25, -187500.02, 0.00, 0.00, 0.00, 0.00
49, -36971.21, -64240.70, -29881.93, -54473.57, -174503.42, -165549.36, -187500.02, 0.00, 0.00, 0.00, 0.00
50, -36803.80, -63776.16, -29988.82, -54724.27, -174736.50, -165237.80, -187500.02, 0.00, 0.00, 0.00, 0.00
51, -37164.38, -64773.77, -29693.53, -54071.68, -174229.70, -165849.58, -187500.02, 0.00, 0.00, 0.00, 0.00
52, -37347.28, -65229.50, -29548.80, -53718.28, -174003.56, -166114.20, -187500.02, 0.00, 0.00, 0.00, 0.00
53, -37092.09, -64476.55, -29746.42, -54148.89, -174387.81, -165608.19, -187500.02, 0.00, 0.00, 0.00, 0.00
54, -36826.49, -63746.48, -29928.67, -54563.18, -174748.41, -165125.39, -187500.02, 0.00, 0.00, 0.00, 0.00
55, -37121.02, -64567.28, -29687.12, -53994.79, -174331.17, -165632.61, -187500.02, 0.00, 0.00, 0.00, 0.00
56, -37366.17, -65202.79, -29500.88, -53508.62, -174024.31, -166010.00, -187500.02, 0.00, 0.01, 0.91, 0.40
57, -37162.39, -64612.57, -29657.61, -53832.97, -174332.11, -165600.22, -187500.02, 0.00, 0.00, 0.00, 0.00
58, -36824.03, -63694.36, -29895.39, -54368.89, -174787.59, -164989.16, -187500.02, 0.00, 0.00, 0.00, 0.00
59, -37043.12, -64293.14, -29728.45, -53921.50, -174489.41, -165350.88, -187500.02, 0.00, 0.00, 0.00, 0.00
60, -37350.41, -65082.46, -29510.92, -53305.33, -174113.56, -165822.69, -187500.02, 0.00, 0.00, 0.00, 0.00
61, -37229.98, -64711.85, -29609.96, -53469.04, -174314.36, -165544.09, -187500.02, 0.00, 0.00, 0.00, 0.00
62, -36858.18, -63692.99, -29879.30, -54080.49, -174826.42, -164851.53, -187500.02, 0.00, 0.00, 0.00, 0.00
63, -36985.81, -64032.36, -29788.82, -53785.34, -174666.98, -165038.72, -187500.02, 0.00, 0.00, 0.00, 0.00
64, -37349.74, -64949.32, -29550.68, -53049.90, -174241.44, -165597.61, -187500.02, 0.00, 0.00, 0.00, 0.00
65, -37328.13, -64812.57, -29593.89, -53034.41, -174337.50, -165470.55, -187500.02, 0.00, 0.02, 0.91, 0.39
66, -36987.62, -63819.82, -29859.38, -53631.20, -174846.25, -164790.94, -187500.02, 0.00, 0.00, 0.00, 0.00
67, -37015.02, -63870.29, -29843.62, -53523.73, -174833.50, -164790.84, -187500.02, 0.00, 0.00, 0.00, 0.00
68, -37388.75, -64841.71, -29594.89, -52729.44, -174385.89, -165386.36, -187500.02, 0.00, 0.00, 0.00, 0.00
69, -37460.94, -64935.41, -29570.73, -52523.16, -174369.44, -165413.09, -187500.02, 0.00, 0.00, 0.00, 0.00
70, -37199.25, -64061.44, -29783.90, -53004.99, -174815.17, -164814.58, -187500.02, 0.00, 0.00, 0.00, 0.00
71, -37146.86, -63847.89, -29830.93, -53064.27, -174936.45, -164653.56, -187500.02, 0.00, 0.00, 0.00, 0.00
72, -37487.27, -64787.65, -29601.91, -52332.34, -174509.81, -165239.64, -187500.02, 0.00, 0.00, 0.00, 0.00
73, -37654.78, -65109.64, -29518.45, -51921.49, -174383.83, -165414.95, -187500.02, 0.00, 0.00, 0.00, 0.00
74, -37557.61, -64466.86, -29650.93, -52005.49, -174704.31, -164959.36, -187500.02, 0.00, 0.00, 0.00, 0.00
75, -37524.24, -64097.22, -29709.29, -51903.43, -174889.44, -164692.30, -187500.02, 0.00, 0.01, 0.91, 0.40
76, -37767.45, -64894.46, -29513.94, -51302.13, -174524.22, -165204.06, -187500.02, 0.00, 0.00, 0.00, 0.00
77, -37906.93, -65317.41, -29411.54, -50922.35, -174343.94, -165466.88, -187500.02, 0.00, 0.00, 0.00, 0.00
78, -37791.81, -64762.05, -29530.70, -51040.39, -174620.34, -165083.08, -187500.02, 0.00, 0.00, 0.00, 0.00
79, -37698.70, -64192.35, -29633.09, -51005.65, -174895.27, -164709.38, -187500.02, 0.00, 0.00, 0.00, 0.00
80, -37955.14, -64905.38, -29452.36, -50314.11, -174578.19, -165184.27, -187500.02, 0.00, 0.00, 0.00, 0.00
81, -38160.35, -65501.38, -29309.89, -49756.25, -174332.78, -165583.73, -187500.02, 0.00, 0.00, 0.00, 0.00
82, -38075.77, -65101.38, -29388.99, -49765.38, -174538.02, -165314.59, -187500.02, 0.00, 0.00, 0.00, 0.00
83, -37912.29, -64377.78, -29527.90, -49857.66, -174887.83, -164803.20, -187500.02, 0.00, 0.00, 0.00, 0.00
84, -38105.81, -64895.61, -29394.89, -49262.37, -174661.69, -165122.08, -187500.02, 0.00, 0.00, 0.00, 0.00
85, -38347.32, -65623.36, -29222.02, -48611.40, -174341.75, -165560.58, -187500.02, 0.00, 0.02, 0.91, 0.40
86, -38282.48, -65374.74, -29270.66, -48535.85, -174475.39, -165340.67, -187500.02, 0.00, 0.00, 0.00, 0.00
87, -38012.47, -64503.89, -29448.62, -48832.17, -174882.33, -164729.63, -187500.02, 0.00, 0.00, 0.00, 0.00
88, -38096.96, -64751.48, -29370.75, -48465.49, -174769.83, -164851.52, -187500.02, 0.00, 0.00, 0.00, 0.00
89, -38381.88, -65587.88, -29159.73, -47739.57, -174393.83, -165355.78, -187500.02, 0.00, 0.00, 0.00, 0.00
90, -38358.48, -65509.86, -29156.60, -47648.42, -174436.30, -165268.48, -187500.02, 0.00, 0.00, 0.00, 0.00
91, -38025.14, -64584.89, -29341.98, -48172.90, -174857.42, -164649.69, -187500.02, 0.00, 0.00, 0.00, 0.00
92, -37985.20, -64532.34, -29324.88, -48127.89, -174878.83, -164618.25, -187500.02, 0.00, 0.00, 0.00, 0.00
93, -38303.58, -65434.53, -29100.61, -47419.65, -174482.31, -165200.94, -187500.02, 0.00, 0.00, 0.00, 0.00
94, -38351.39, -65557.38, -29051.30, -47236.30, -174442.86, -165268.03, -187500.02, 0.00, 0.00, 0.00, 0.00
95, -38023.96, -64686.39, -29214.04, -47754.97, -174831.03, -164694.16, -187500.02, 0.00, 0.02, 0.91, 0.40
96, -37885.25, -64360.77, -29255.28, -47931.46, -174970.92, -164489.28, -187500.02, 0.00, 0.00, 0.00, 0.00
97, -38209.28, -65259.40, -29039.59, -47293.96, -174576.53, -165070.44, -187500.02, 0.00, 0.00, 0.00, 0.00
98, -38337.09, -65583.52, -28957.04, -47031.96, -174438.58, -165238.89, -187500.02, 0.00, 0.00, 0.00, 0.00
99, -38070.41, -64850.30, -29111.07, -47503.58, -174757.69, -164686.31, -187500.02, 0.00, 0.00, 0.00, 0.00
100, -37847.52, -64282.81, -29216.08, -47829.29, -174988.61, -164263.83, -187500.02, 0.00, 0.00, 0.00, 0.00
101, -38131.61, -65080.36, -29022.11, -47248.10, -174622.59, -164718.05, -187500.02, 0.00, 0.00, 0.00, 0.00
102, -38318.45, -65575.66, -28899.93, -46835.55, -174408.33, -165001.52, -187500.02, 0.00, 0.00, 0.00, 0.00
103, -38095.06, -64980.25, -29024.28, -47165.33, -174676.17, -164606.44, -187500.02, 0.00, 0.00, 0.00, 0.00
104, -37798.88, -64224.25, -29175.75, -47612.79, -175010.53, -164108.95, -187500.02, 0.00, 0.00, 0.00, 0.00
105, -38021.30, -64864.34, -29016.05, -47224.52, -174712.47, -164507.98, -187500.02, 0.00, 0.02, 0.90, 0.40
106, -38270.30, -65526.91, -28855.83, -46781.95, -174420.17, -164893.42, -187500.02, 0.00, 0.00, 0.00, 0.00
107, -38108.43, -65108.93, -28934.20, -47048.95, -174587.44, -164590.59, -187500.02, 0.00, 0.00, 0.00, 0.00
108, -37756.18, -64217.14, -29118.11, -47624.64, -174960.11, -163996.86, -187500.02, 0.00, 0.00, 0.00, 0.00
109, -37904.40, -64649.45, -29011.24, -47366.68, -174746.94, -164256.17, -187500.02, 0.00, 0.00, 0.00, 0.00
110, -38207.27, -65450.22, -28818.97, -46825.70, -174372.13, -164729.13, -187500.02, 0.00, 0.00, 0.00, 0.00
111, -38122.24, -65232.43, -28856.23, -46925.00, -174450.31, -164520.45, -187500.02, 0.00, 0.00, 0.00, 0.00
112, -37752.63, -64293.43, -29056.66, -47462.34, -174848.73, -163872.97, -187500.02, 0.00, 0.00, 0.00, 0.00
113, -37800.31, -64463.79, -29011.04, -47295.80, -174750.20, -163947.48, -187500.02, 0.00, 0.00, 0.00, 0.00
114, -38135.34, -65362.64, -28797.99, -46722.23, -174328.05, -164494.89, -187500.02, 0.00, 0.00, 0.00, 0.00
115, -38123.74, -65345.10, -28791.19, -46719.70, -174319.39, -164453.72, -187500.02, 0.00, 0.02, 0.91, 0.40
116, -37765.82, -64428.32, -28984.56, -47261.51, -174708.36, -163843.06, -187500.02, 0.00, 0.00, 0.00, 0.00
117, -37706.43, -64321.19, -28997.65, -47387.17, -174727.17, -163752.34, -187500.02, 0.00, 0.00, 0.00, 0.00
118, -38031.92, -65249.03, -28772.77, -46948.27, -174278.38, -164292.84, -187500.02, 0.00, 0.00, 0.00, 0.00
119, -38100.16, -65446.71, -28717.34, -46907.61, -174154.75, -164353.44, -187500.02, 0.00, 0.00, 0.00, 0.00
120, -37796.98, -64622.29, -28898.50, -47416.30, -174488.58, -163759.53, -187500.02, 0.00, 0.00, 0.00, 0.00
121, -37637.61, -64241.73, -28970.07, -47688.29, -174615.36, -163477.80, -187500.02, 0.00, 0.00, 0.00, 0.00
122, -37920.16, -65114.47, -28744.48, -47322.20, -174172.09, -164037.09, -187500.02, 0.00, 0.00, 0.00, 0.00
123, -38041.01, -65485.04, -28638.33, -47209.21, -173980.58, -164270.23, -187500.02, 0.00, 0.00, 0.00, 0.00
124, -37793.16, -64797.64, -28793.99, -47675.40, -174285.52, -163813.38, -187500.02, 0.00, 0.00, 0.00, 0.00
125, -37557.57, -64186.12, -28923.65, -48102.65, -174544.08, -163419.92, -187500.02, 0.00, 0.02, 0.91, 0.40
126, -37809.00, -64962.79, -28725.77, -47842.81, -174152.72, -163929.45, -187500.02, 0.00, 0.00, 0.00, 0.00
127, -38009.88, -65530.55, -28579.21, -47657.72, -173856.73, -164250.09, -187500.02, 0.00, 0.00, 0.00, 0.00
128, -37828.25, -65011.07, -28695.86, -48023.19, -174047.50, -163809.52, -187500.02, 0.00, 0.00, 0.00, 0.00
129, -37537.61, -64226.39, -28874.47, -48508.85, -174354.58, -163199.61, -187500.02, 0.00, 0.00, 0.00, 0.00
130, -37708.75, -64801.10, -28721.23, -48315.57, -174021.13, -163525.16, -187500.02, 0.00, 0.00, 0.00, 0.00
131, -37946.64, -65506.39, -28537.63, -48031.15, -173648.63, -163944.81, -187500.02, 0.00, 0.00, 0.00, 0.00
132, -37822.66, -65158.62, -28611.93, -48271.74, -173768.88, -163648.45, -187500.02, 0.00, 0.00, 0.00, 0.00
133, -37497.26, -64267.90, -28814.62, -48775.98, -174139.47, -163006.95, -187500.02, 0.00, 0.00, 0.00, 0.00
134, -37592.48, -64624.01, -28716.25, -48699.55, -173922.88, -163209.80, -187500.02, 0.00, 0.00, 0.00, 0.00
135, -37866.60, -65448.92, -28504.62, -48372.70, -173497.59, -163718.39, -187500.02, 0.00, 0.01, 0.91, 0.40
136, -37810.79, -65297.64, -28531.69, -48504.78, -173532.75, -163574.11, -187500.02, 0.00, 0.00, 0.00, 0.00
137, -37474.84, -64365.36, -28746.78, -49006.36, -173930.89, -162924.25, -187500.02, 0.00, 0.00, 0.00, 0.00
138, -37469.43, -64445.17, -28713.86, -49042.88, -173843.30, -162949.73, -187500.02, 0.00, 0.00, 0.00, 0.00
139, -37759.74, -65341.14, -28485.58, -48683.02, -173377.27, -163501.16, -187500.02, 0.00, 0.00, 0.00, 0.00
140, -37760.84, -65371.86, -28467.00, -48708.43, -173320.47, -163482.20, -187500.02, 0.00, 0.00, 0.00, 0.00
141, -37422.96, -64456.42, -28672.93, -49168.70, -173702.83, -162857.64, -187500.02, 0.00, 0.00, 0.00, 0.00
142, -37302.80, -64230.24, -28704.49, -49314.88, -173754.88, -162709.31, -187500.02, 0.00, 0.00, 0.00, 0.00
143, -37579.94, -65123.04, -28472.19, -48955.82, -173294.86, -163292.47, -187500.02, 0.00, 0.00, 0.00, 0.00
144, -37639.55, -65344.83, -28396.84, -48879.24, -173154.69, -163425.94, -187500.02, 0.00, 0.00, 0.00, 0.00
145, -37336.51, -64522.36, -28580.15, -49292.39, -173510.89, -162882.50, -187500.02, 0.00, 0.01, 0.91, 0.40
146, -37144.75, -64055.49, -28678.23, -49557.19, -173700.67, -162588.94, -187500.02, 0.00, 0.00, 0.00, 0.00
147, -37411.28, -64906.67, -28459.00, -49243.26, -173271.50, -163149.31, -187500.02, 0.00, 0.00, 0.00, 0.00
148, -37551.91, -65336.20, -28340.83, -49091.78, -173051.05, -163419.44, -187500.02, 0.00, 0.00, 0.00, 0.00
149, -37319.79, -64677.50, -28498.00, -49443.49, -173352.23, -162984.09, -187500.02, 0.00, 0.00, 0.00, 0.00
150, -37059.14, -63989.15, -28653.55, -49802.25, -173656.22, -162545.36, -187500.02, 0.00, 0.00, 0.00, 0.00
151, -37285.68, -64725.98, -28462.80, -49545.93, -173283.70, -163024.23, -187500.02, 0.00, 0.00, 0.00, 0.00
152, -37489.39, -65330.55, -28307.28, -49320.62, -172986.48, -163408.48, -187500.02, 0.00, 0.00, 0.00, 0.00
153, -37308.79, -64831.14, -28419.28, -49582.83, -173203.11, -163077.03, -187500.02, 0.00, 0.00, 0.00, 0.00
154, -36986.70, -63970.96, -28614.95, -49999.87, -173585.05, -162527.59, -187500.02, 0.00, 0.01, 0.91, 0.40
155, -37135.93, -64498.21, -28472.01, -49833.68, -173305.52, -162873.11, -187500.02, 0.00, 0.00, 0.00, 0.00
156, -37383.94, -65245.97, -28274.93, -49546.48, -172930.39, -163348.59, -187500.02, 0.00, 0.00, 0.00, 0.00
157, -37272.18, -64936.89, -28345.41, -49719.33, -173062.78, -163143.25, -187500.02, 0.00, 0.00, 0.00, 0.00
158, -36926.49, -63994.36, -28565.08, -50158.41, -173488.33, -162541.83, -187500.02, 0.00, 0.00, 0.00, 0.00
159, -36996.29, -64277.71, -28484.48, -50095.89, -173329.39, -162726.45, -187500.02, 0.00, 0.00, 0.00, 0.00
160, -37291.70, -65152.63, -28263.38, -49768.01, -172903.61, -163277.56, -187500.02, 0.00, 0.00, 0.00, 0.00
161, -37255.35, -65055.55, -28281.79, -49841.04, -172938.89, -163203.80, -187500.02, 0.00, 0.00, 0.00, 0.00
162, -36908.52, -64096.71, -28505.04, -50272.29, -173372.34, -162593.88, -187500.02, 0.00, 0.00, 0.00, 0.00
163, -36882.30, -64098.14, -28489.64, -50310.67, -173344.13, -162598.70, -187500.02, 0.00, 0.00, 0.00, 0.00
164, -37199.20, -65035.24, -28252.18, -49957.13, -172885.86, -163178.81, -187500.02, 0.00, 0.01, 0.91, 0.40
165, -37243.50, -65140.49, -28220.39, -49932.81, -172829.36, -163225.86, -187500.02, 0.00, 0.00, 0.00, 0.00
166, -36926.45, -64248.32, -28430.88, -50324.28, -173241.02, -162658.13, -187500.02, 0.00, 0.00, 0.00, 0.00
167, -36804.05, -63967.11, -28483.63, -50466.48, -173352.02, -162483.78, -187500.02, 0.00, 0.00, 0.00, 0.00
168, -37126.36, -64907.50, -28248.96, -50117.44, -172898.09, -163060.34, -187500.02, 0.00, 0.00, 0.00, 0.00
169, -37240.15, -65215.62, -28168.81, -50006.04, -172749.56, -163237.73, -187500.02, 0.00, 0.00, 0.00, 0.00
170, -36949.51, -64419.65, -28354.80, -50352.18, -173112.11, -162738.38, -187500.02, 0.00, 0.00, 0.00, 0.00
171, -36733.50, -63878.85, -28475.92, -50600.44, -173348.66, -162409.27, -187500.02, 0.00, 0.00, 0.00, 0.00
172, -37028.37, -64740.53, -28263.20, -50285.52, -172929.66, -162937.86, -187500.02, 0.00, 0.00, 0.00, 0.00
173, -37215.34, -65249.39, -28137.22, -50092.16, -172687.63, -163243.52, -187500.02, 0.00, 0.00, 0.00, 0.00
174, -36965.40, -64593.88, -28291.88, -50389.86, -172983.41, -162838.27, -187500.02, 0.00, 0.01, 0.91, 0.40
175, -36643.27, -63806.54, -28468.63, -50743.22, -173327.30, -162365.88, -187500.02, 0.00, 0.00, 0.00, 0.00
176, -36899.42, -64533.71, -28287.14, -50471.94, -172970.58, -162812.53, -187500.02, 0.00, 0.00, 0.00, 0.00
177, -37169.12, -65231.57, -28115.50, -50183.24, -172644.41, -163234.36, -187500.02, 0.00, 0.00, 0.00, 0.00
178, -36985.03, -64759.75, -28230.16, -50409.46, -172862.78, -162945.13, -187500.02, 0.00, 0.00, 0.00, 0.00
179, -36600.40, -63809.24, -28454.37, -50847.73, -173295.89, -162377.44, -187500.02, 0.00, 0.00, 0.00, 0.00
180, -36783.44, -64321.23, -28325.85, -50660.79, -173046.63, -162690.55, -187500.02, 0.00, 0.00, 0.00, 0.00
181, -37122.38, -65185.38, -28108.75, -50286.39, -172640.70, -163202.69, -187500.02, 0.00, 0.00, 0.00, 0.00
182, -37013.23, -64911.25, -28169.23, -50413.66, -172761.14, -163029.34, -187500.02, 0.00, 0.00, 0.00, 0.00
183, -36593.87, -63880.05, -28418.05, -50888.28, -173235.22, -162415.02, -187500.02, 0.00, 0.00, 0.00, 0.00
184, -36674.00, -64117.47, -28360.83, -50804.20, -173121.78, -162560.14, -187500.02, 0.00, 0.02, 0.91, 0.39
185, -37070.16, -65110.68, -28115.14, -50365.59, -172661.97, -163144.39, -187500.02, 0.00, 0.00, 0.00, 0.00
186, -37053.96, -65063.49, -28122.29, -50386.02, -172683.97, -163104.39, -187500.02, 0.00, 0.00, 0.00, 0.00
187, -36625.16, -64023.82, -28366.84, -50857.46, -173154.53, -162484.23, -187500.02, 0.00, 0.00, 0.00, 0.00
188, -36575.48, -63947.04, -28377.13, -50912.71, -173177.64, -162441.05, -187500.02, 0.00, 0.00, 0.00, 0.00
189, -36999.24, -64999.72, -28119.32, -50459.08, -172693.70, -163056.11, -187500.02, 0.00, 0.00, 0.00, 0.00
190, -37077.99, -65183.92, -28069.77, -50376.34, -172611.98, -163153.53, -187500.02, 0.00, 0.00, 0.00, 0.00
191, -36682.03, -64223.78, -28299.41, -50819.89, -173051.64, -162583.20, -187500.02, 0.00, 0.00, 0.00, 0.00
